Time,P3,F3,C3,Cz,T7,P4,F4,C4,T8
0,-42.49050259,939.2527406,282.5643855,272.789118,622.6455348,904.0094583,608.0987473,-9.878963441,291.9367243
0.002,-40.50124478,947.2993714,284.1737605,273.5718329,626.4228785,905.1940896,611.6749192,-8.895503969,294.0824763
0.004,-40.00954556,951.9038636,284.419366,273.6387274,627.3840602,906.5128457,615.8995286,-8.113216371,293.8813044
0.006,-40.88112759,949.690973,285.4701472,274.9575751,626.9370387,907.3175027,611.586052,-6.995601625,292.7860896
0.008,-43.13894009,947.2770326,285.0228816,275.6948797,625.3948024,904.5906045,603.6505051,-7.822627992,289.9921443
0.01,-47.54177212,954.8318421,284.7098933,277.4829657,625.0818141,901.9083841,602.6446457,-6.950923891,291.8697077
0.012,-48.83815884,956.0388734,283.5702449,277.3042547,623.0254176,902.0425088,607.226677,-5.989803285,294.1048152
0.014,-45.821069,952.0825746,284.240655,278.2207587,623.673611,904.1212137,610.5128098,-4.805110902,296.3847224
0.016,-43.5188229,948.3722474,286.1630183,277.4829657,625.4170192,904.6576516,610.8926926,-4.62633893,294.3507868
0.018,-43.11647915,941.1526429,286.4760066,275.6055243,624.8359645,904.4788492,610.0655442,-3.128780336,292.4955622
0.02,-41.55153775,930.7814271,289.4262019,275.8960516,624.3218043,905.305845,611.4063645,-5.095699281,290.9756648
0.022,-43.18337368,920.8572328,285.313409,275.0469305,621.8183863,903.9870889,609.5743332,-8.046138734,292.0932185
0.024,-46.04421353,932.6141908,281.3348933,274.6445868,618.9128688,903.2718484,610.1778489,-6.593257875,294.4624812
0.026,-51.54274868,962.9008119,271.7460261,274.9795477,620.7678492,903.1824319,613.3956223,-2.882869691,300.6762263
0.028,-51.56520962,950.6073548,277.5575496,275.7398016,625.3501246,901.1037271,613.820427,-4.313411684,303.3584773
0.03,-50.20192837,943.8347718,283.2347957,276.007868,623.8747828,899.3379495,614.5362473,-4.760433168,299.5810115
0.032,-50.961694,945.2653138,278.4965144,272.9458563,616.2529567,898.0415323,614.2452317,-6.325069398,290.7298152
0.034,-49.48659634,944.7959535,275.4789363,272.1411688,612.810818,899.0026529,612.1446457,-2.614681215,282.3925349
0.036,-45.35134243,946.0923402,276.6410457,272.1411688,615.7165797,900.6566751,612.1895676,-2.435848207,284.4936091
0.038,-43.6750729,947.4334046,278.9882136,273.2363837,620.27615,899.9190652,615.8995286,-9.655452699,289.6344783
0.04,-43.25026822,944.5054261,279.6137019,273.370661,618.8232692,899.0920694,619.2745286,-11.06365582,288.9862849
0.042,-44.01052212,942.0020081,279.7704402,272.6773016,619.9634059,896.5216043,622.5831223,-13.701107,289.3662898
0.044,-45.64186978,938.2915589,280.6644832,272.3198797,619.1587184,895.4934366,613.8428879,-12.56121442,288.4275691
0.046,-46.53640103,937.4868714,279.7030574,272.811579,619.4714625,896.0075357,604.6788254,-9.878963441,288.0699031
0.048,-49.28542447,939.0962464,276.3729793,273.0352118,618.5552028,895.3369729,600.4542161,-9.946041078,288.0252253
0.05,-51.7219479,940.9738099,276.931573,273.1245672,617.3257106,894.1523416,602.8458176,-9.36486432,289.3662898
0.052,-51.40895962,942.3372132,278.1835261,272.1856024,616.4316676,896.1863382,606.8917161,-7.308528871,291.8920466
0.054,-48.72683072,945.0864808,280.306573,272.073786,617.8174098,898.0415323,611.7198411,-7.040340395,292.9425837
0.056,-47.47487759,944.2147767,281.4916316,272.4092352,618.7116969,895.8734109,609.1270676,-9.81194684,290.5956599
0.058,-46.20095181,939.6104066,283.1903621,271.5376532,617.5493434,895.8734109,604.0753098,-11.57769391,287.3993708
0.06,-44.05495572,940.9291322,283.8383113,270.5317938,621.2820094,895.1358011,600.4092942,-10.21429059,288.6510798
0.062,-44.74782681,945.9135072,282.4970027,270.7773993,624.4114039,893.3923623,599.0010911,-10.4601402,288.4945857
0.064,-45.53054165,944.3936097,281.4017879,271.6270087,622.5783961,893.5935342,598.5772629,-11.62243268,287.6005427
0.066,-47.16188931,941.845514,280.4408504,272.2529852,620.8574488,893.3253152,596.9903489,-11.89062116,287.7345759
0.068,-48.81618618,949.869806,279.1444636,273.8174383,620.4551051,893.8394143,596.0508957,-11.64477155,288.3380915
0.07,-50.55935025,949.8027894,278.7421199,276.4995672,622.9807399,893.9511697,599.6270676,-9.163753481,292.2720515
0.072,-50.60427212,942.4937074,280.306573,278.7793524,625.0371363,892.3865335,603.2032395,-8.202632875,295.6918513
0.074,-49.88894009,936.5928285,282.1171199,277.9746649,624.1206324,891.0007303,603.1143723,-9.744869203,295.6918513
0.076,-47.54177212,933.4412171,282.63128,276.8794501,623.3830836,892.3865335,604.0977707,-8.090816469,292.897906
0.078,-47.07253384,921.170099,281.2230769,278.3325751,622.3103297,893.8617532,603.9415207,-6.347408266,294.6859919
0.08,-46.17849087,914.9786927,281.1561824,278.511286,622.9585231,894.6887796,606.4893723,-4.492244691,296.4294001
0.082,-44.68093228,929.9320619,282.0502254,277.1480047,623.6513942,894.0405862,611.6299973,-5.989803285,295.3565241
0.084,-42.64675259,946.4276673,282.2513972,277.0361883,622.6902125,895.7169473,612.9268723,-7.867305727,288.9862849
0.086,-44.16677212,945.6229798,279.9042293,276.6782782,618.9575465,895.6946084,611.2950364,-8.269649477,288.6287409
0.088,-45.46315884,940.3479554,278.9208308,277.795954,616.5210231,895.7393167,610.6915207,-6.257991762,291.1544978
0.09,-46.04421353,934.1342103,278.0717097,278.7793524,613.1235621,898.9132364,606.9366379,1.788639098,289.321612
0.092,-46.98317837,949.2662904,277.0209285,279.7183172,616.0964625,898.9356057,608.8809739,-2.41350934,289.7016169
0.094,-46.2453854,954.5189759,276.5966121,279.0698797,620.5891383,898.175657,613.4180832,-5.02868268,296.630572
0.096,-41.39528775,936.145807,282.7206355,277.9302313,618.5327418,898.3544595,618.4473801,-8.068477602,291.1768366
0.098,-39.76345181,937.4645326,280.5077449,275.9409735,616.1186793,898.4885537,620.4815598,-9.275508852,286.5276667
0.1,-40.00954556,936.9281556,280.150323,275.3818915,617.4153102,899.1367776,611.1387864,-6.660335512,287.6675593
0.102,-40.43435025,939.7221009,279.5917293,276.4995672,620.3879664,899.4049966,598.6885911,-4.559261293,288.3604304
0.104,-42.49050259,939.6774232,278.2728816,277.5054266,621.3491481,897.5050943,595.7608567,-3.776973695,289.6568171
0.106,-45.46315884,937.5093324,276.8871394,277.3267157,621.0808375,896.0298745,598.6212082,-3.687557191,292.3390681
0.108,-46.37966275,935.2070863,277.8929988,278.3101141,622.3550074,897.1474588,601.2589036,-1.430049867,293.7249324
0.11,-48.12331509,931.4296204,282.4525691,277.795954,623.4055445,895.6051919,604.9249192,0.648685484,297.2564265
0.112,-47.89968228,930.8707826,279.8148738,275.9185126,625.2158473,895.0017068,609.3946457,2.392093687,299.2010066
0.114,-44.97145962,932.1448304,281.7147761,275.9634344,626.9817164,893.7947061,611.742302,1.408634215,295.8260066
0.116,-42.42360806,939.7221009,282.5419246,276.2759344,632.3015406,892.4536111,613.0831223,-0.982967348,295.915362
0.118,-40.4563229,945.3099915,281.915948,275.4043524,629.7087672,893.2582681,613.5967942,-0.178340883,297.1447322
0.12,-39.74147915,943.6335999,279.7030574,273.5938055,624.388943,894.1970193,612.9717942,0.894535094,298.9104792
0.122,-38.55642056,951.6132142,280.329034,272.811579,624.5007594,895.4487283,611.3624192,1.095706969,297.524737
0.124,-39.67409634,954.2954652,280.1054011,272.5879462,626.0429957,896.0075357,611.4512864,2.459171324,298.3293025
0.126,-39.71901822,946.8746888,281.4691707,275.3149969,628.859402,895.6499002,614.6924973,4.470829039,305.1690241
0.128,-39.20485806,938.0010316,284.2855769,278.1758368,628.9040797,895.2922647,615.0723801,3.263858824,305.1690241
0.13,-41.93190884,930.2449281,282.3856746,277.1030829,622.9807399,891.8948037,612.8370286,-1.072383852,296.4965388
0.132,-42.91530728,929.4403626,280.0834285,274.0855047,620.0974391,892.4982888,613.7315598,-2.637020082,292.4060847
0.134,-43.18337368,930.2002503,281.0892879,274.0186102,622.5115016,892.8335855,614.8936692,-1.832332582,293.2107722
0.136,-42.44558072,925.1934144,283.2123347,274.5552313,625.640652,895.4934366,615.0499192,0.738101988,295.9600398
0.138,-40.67995572,919.1585023,283.1679011,274.1973212,626.512234,896.7898233,613.6866379,2.101566344,295.7141902
0.14,-38.6906979,933.3965394,284.6429988,275.4043524,628.859402,896.7674844,611.4737473,3.17444232,294.8201472
0.142,-36.9250729,951.2108704,285.0678035,276.5669501,630.960232,895.6946084,614.4239426,2.749759703,295.401324
0.144,-37.86354947,952.6637513,283.3016902,274.9351141,630.8933375,894.4652688,618.3585129,-0.424190492,296.5635554
0.146,-42.0656979,946.8075501,279.3905574,273.7056219,627.8088649,893.0794351,616.1007004,-2.793453188,296.1165339
0.148,-41.61892056,945.0864808,279.3680965,274.3760321,626.3113063,895.5381448,616.8155442,-1.340633363,295.7588679
0.15,-43.13894009,941.5549867,279.5243465,275.4937079,625.1489528,896.9462869,618.6710129,3.241458922,296.6977107
0.152,-43.54079556,940.1021058,280.0160457,276.0527899,624.031277,897.7956521,616.0333176,6.549564391,296.5858943
0.154,-41.68581509,942.4043519,281.7372371,277.0586493,625.0818141,894.3981912,621.3975754,-3.195796938,299.4021784
0.156,-39.29421353,943.9689271,282.5643855,278.5562079,626.0429957,894.6217019,625.9356614,-3.329952211,298.0164363
0.158,-38.55642056,940.3032777,281.6703425,276.2090399,622.3550074,896.4769265,618.336052,-3.128780336,293.0096003
0.16,-38.64577603,938.0010316,279.3456355,275.0469305,621.2820094,897.9297769,608.5684739,-1.787654848,292.5179011
0.162,-37.55056118,942.4043519,277.646905,275.7622626,623.137234,898.7344339,599.7842942,0.447513609,293.4789607
0.164,-40.52370572,957.536432,271.4554988,274.7114813,623.9641383,896.6333596,598.8223801,0.313419371,295.8260066
0.166,-38.55642056,939.7667787,278.7870418,276.3208563,622.5783961,894.0405862,600.3878098,-0.558284731,295.9600398
0.168,-37.70729947,929.2838685,285.85003,277.617243,620.4551051,890.6430948,600.4092942,-2.860530824,294.5071589
0.17,-39.60720181,933.4412171,283.5702449,274.1304266,618.4433863,889.5925882,600.2530442,-6.615657777,286.6393611
0.172,-39.36110806,933.6871888,280.9774715,272.9683172,618.8904078,889.5702188,600.9239426,-8.493160219,281.6101863
0.174,-38.55642056,934.5588929,282.5643855,274.8008368,622.9585231,889.5478799,600.7003098,-7.844966859,287.5782038
0.176,-38.26589322,940.2809388,282.7430965,275.8291571,625.5288356,889.614927,600.2081223,-7.219112367,289.7016169
0.178,-37.37185025,949.4227845,283.6146785,273.7949774,626.0205348,889.5702188,597.8839036,-6.257991762,288.4945857
0.18,-36.88015103,955.1448304,285.0902644,274.1079657,627.3840602,890.2184121,596.9229661,-6.19097516,289.0534236
0.182,-34.42165493,949.6016175,287.5262996,274.9351141,629.0605738,891.8948037,598.2413254,-4.715755434,287.533404
0.184,-33.28151822,941.7113587,288.7108699,274.9351141,630.3569606,892.9006326,601.6163254,-2.905269594,288.4499079
0.186,-33.95192837,932.1224915,289.8060847,278.1538641,630.803982,891.939512,605.5284348,-2.77111432,289.7909724
0.188,-35.06960415,921.170099,291.4154597,280.7910712,630.982693,890.8219278,607.6065598,-3.017024965,292.54024
0.19,-37.43923306,931.2954652,290.4989558,279.405329,629.6191676,890.3972451,604.8575364,-3.329952211,291.3780085
0.192,-39.60720181,949.2662904,288.0404597,277.8853094,629.5744899,889.1902444,601.5049973,-3.441707582,290.7298152
0.194,-38.5344479,953.2225892,287.481866,277.9526922,630.5132106,889.1902444,603.0245286,-2.01116559,290.4838435
0.196,-36.2766354,952.3508851,287.3925105,277.7515204,629.8428004,892.0289285,604.7686692,-1.385311098,290.5286433
0.198,-35.94167447,949.6462953,286.3192683,276.9243719,628.8816188,892.6547525,608.836052,-0.111263246,296.809405
0.2,-35.13698697,948.3052308,285.3807918,276.6563055,625.975857,891.2689492,606.9815598,-0.692440004,297.1223933
0.202,-34.555444,946.114679,286.587823,276.4551337,621.9526637,891.2689492,602.9805832,2.995609312,292.2720515
0.204,-34.08620572,944.2819154,288.4203425,276.2090399,620.9021266,890.0619485,614.6700364,-2.36877057,290.0814997
0.206,-34.399194,943.1642396,288.8451472,273.6611883,621.2820094,889.6372659,623.6553879,-9.789546938,289.0534236
0.208,-36.9695065,940.5044496,285.7382136,271.023493,620.3879664,890.2184121,615.7432786,-7.263851137,282.3478572
0.21,-38.33327603,941.2196595,285.2015925,272.2974188,621.2820094,890.7325113,605.9971848,-5.118038148,278.7268855
0.212,-38.28835415,942.9407288,285.8051082,273.9961493,620.0749781,891.0901468,603.851677,-3.285213441,282.5043513
0.214,-36.2766354,946.5840394,288.4877254,274.9126532,623.4502223,893.45944,605.8184739,-1.60882184,286.3935115
0.216,-33.95192837,947.6345765,289.1805965,275.6948797,626.6240504,895.2922647,608.7471848,-0.312435121,290.1039607
0.218,-32.52175259,949.5568177,289.962823,274.420954,629.6863063,895.9181192,609.0147629,-0.178340883,293.6577937
0.22,-30.17458462,950.5403382,290.678155,275.2031805,629.7087672,895.9628274,608.9483567,-0.714778871,293.0542781
0.222,-27.1125729,949.3109681,291.1698543,276.3657782,625.5959742,895.0910928,608.5684739,-1.541805238,289.5227839
0.224,-27.93972134,943.8124329,293.0697566,274.577204,622.5561793,893.3476541,605.3721848,-3.240535707,287.9580866
0.226,-32.99099087,958.1399476,286.0512019,272.3648016,622.4665797,894.2417276,602.9805832,-2.905269594,287.6452204
0.228,-33.50515103,952.8872621,285.9618465,273.7280829,622.3325465,893.3029763,601.1251145,-2.949947328,288.4722468
0.23,-34.19802212,940.8844544,286.5204402,273.8843329,620.0080836,891.7383401,598.6885911,-5.363948793,286.4828669
0.232,-36.70144009,949.7803285,286.2074519,272.8565008,619.0022242,891.4701211,599.3594895,-5.945064516,285.5218074
0.234,-37.37185025,961.8279359,280.3964168,274.420954,620.4104274,894.0405862,600.2979661,-3.106380434,286.5500056
0.236,-35.2038815,958.4976136,281.4691707,272.1856024,619.9409449,895.2475564,597.9512864,-3.665218324,285.588824
0.238,-32.76735806,950.1826722,283.6820613,272.4541571,621.6843531,896.5663125,596.0284348,-3.687557191,287.533404
0.24,-31.60524868,943.9465882,283.8158504,274.4658758,623.2937281,895.8957803,597.3926926,-4.291072816,288.8522517
0.242,-30.84548306,943.7007386,284.7772761,275.3818915,625.282986,896.4992654,600.3428879,-3.464046449,291.5120417
0.244,-31.62770962,943.4995667,283.6820613,275.8960516,625.2158473,897.4380471,602.0411301,-1.340633363,296.7647273
0.246,-33.23708462,936.6151673,281.044366,273.2363837,620.3432887,895.6499002,600.6104661,-3.352291078,290.215655
0.248,-36.67897915,923.2936341,278.0267879,271.8506415,617.3703883,892.9676797,598.4424973,-6.168575258,284.6277644
0.25,-39.42849087,927.3392884,278.563409,271.6939032,615.4482692,892.0736062,596.1407395,-6.369747133,285.7899958
0.252,-41.32839322,943.3877503,277.6918269,272.5659735,614.5989039,895.5828531,593.0333176,-2.502925844,283.085406
0.254,-41.59645962,947.366388,275.188409,273.5938055,614.3305934,897.8627298,591.8936692,1.810977965,283.621905
0.256,-38.91433072,946.1370179,274.7860652,272.8784735,615.3589137,896.6780679,597.3702317,-5.989803285,286.8181941
0.258,-38.28835415,942.1137025,273.735284,272.073786,616.2082789,898.0862405,602.242302,-6.369747133,284.4265925
0.26,-37.43923306,942.0690247,273.1317683,271.179743,617.8174098,897.1027505,605.7960129,-8.940181703,281.5878474
0.262,-37.774194,939.2750794,271.6117488,271.5820868,616.4988063,897.4156778,594.4864426,-8.783748598,280.0232722
0.264,-38.78005337,933.5977113,268.4828425,269.2798407,613.0566676,899.0250222,585.7022629,-9.834285707,277.1398493
0.266,-41.1047604,928.9932191,267.0072566,269.5708563,610.665066,901.03668,581.6339036,-9.722530336,275.6646296
0.268,-43.92116665,927.0263001,265.3085261,270.7329657,607.3791774,899.784971,582.8184739,-10.77306745,274.6140925
0.27,-46.11159634,926.4004456,265.7333308,269.6152899,607.2898219,898.6897256,585.679802,-11.04125592,276.5139949
0.272,-47.65358853,924.4335267,265.0629207,266.7764227,606.0827906,897.996824,587.8926926,-12.33770368,275.7987849
0.274,-47.94411587,923.9865052,265.2865535,265.7485907,606.6640895,897.3486306,589.0098801,-13.701107,276.7151667
0.276,-49.26296353,925.7522523,263.8558894,262.3511297,609.5473903,896.5663125,586.1719895,-14.95281598,278.9727351
0.278,-53.15212368,939.3197572,255.1161433,260.4736883,610.9778102,896.4769265,584.8751145,-16.20452496,279.7997615
0.28,-47.92214322,922.9359681,261.8441707,262.5523016,611.7824977,897.3933389,583.6231614,-18.03734967,275.955279
0.282,-45.37380337,927.8086488,260.9950496,262.999079,610.5085719,900.8131387,587.1104661,-18.03734967,270.6355769
0.284,-46.53640103,931.5637757,259.47503,260.7861883,608.1616481,900.8802163,587.5352707,-16.87505719,272.3789851
0.286,-50.76052212,931.2731263,257.329034,260.0713446,606.7534449,898.5779702,585.2999192,-17.94793317,271.9766413
0.288,-53.68874478,927.8756654,256.7479793,260.0713446,606.3286403,898.2427041,585.4112473,-17.43389508,272.4906794
0.29,-55.58864712,923.1594788,258.8715144,259.780329,603.71365,898.9356057,585.9708176,-16.69628522,273.8765437
0.292,-54.40407681,923.4946839,260.1454402,262.7310126,607.6699488,902.1542642,589.2335129,-12.69530866,279.2632624
0.294,-53.68874478,926.869806,256.6810847,263.3120672,609.0110133,904.0541665,590.4180832,-10.59423444,282.01253
0.296,-53.46511197,933.4188783,254.110284,261.077204,604.4287379,903.5400674,591.0440598,-11.62243268,282.7055232
0.298,-52.8391354,936.145807,252.322198,259.8477118,604.965359,905.1270425,593.8380051,-10.77306745,285.3876521
0.3,-51.85573697,929.6862122,252.3895808,259.6690008,606.5969508,905.842283,596.4981614,-12.78472516,285.8346736
0.302,-50.67116665,914.218805,254.0209285,259.1323797,606.5298121,904.4117715,595.492302,-16.89745709,280.2021052
0.304,-50.93923306,902.3947083,253.4398738,257.2773993,604.9875758,900.9472635,598.6436692,-19.24438092,276.6258113
0.306,-53.24147915,912.2965638,251.6517879,257.120661,603.0429957,897.7956521,599.7169114,-20.83135602,276.8269831
0.308,-55.65554165,926.154596,250.3778621,257.835993,603.5346949,896.3428018,603.2481614,-21.56896588,277.6540095
0.31,-57.93532681,925.975763,248.6342097,257.9478094,603.9817164,899.0920694,599.4034348,-14.5057945,273.1389949
0.312,-57.82399868,927.048639,250.3329402,258.7749579,608.1169703,900.589628,595.2462082,-12.82940289,276.6258113
0.314,-55.61110806,929.1050355,251.2494441,260.6748602,608.1391871,902.0648477,593.6817551,-13.34350202,280.604449
0.316,-54.06862759,928.479181,250.3329402,260.2500555,607.3791774,903.696531,592.9219895,-11.35418317,281.1631648
0.318,-54.11354947,925.7745912,249.2377254,258.9087469,608.2063258,902.7354104,594.7100754,-12.18120954,284.0912654
0.32,-52.86159634,926.4227845,249.4388972,257.3887274,606.1274684,902.1989724,593.9278489,-12.44945905,281.0514704
0.322,-51.96755337,927.406305,248.7015925,255.0195868,603.5124781,902.1766031,590.2169114,-14.34936139,272.8036677
0.324,-51.05104947,926.8251283,249.3270808,255.4888251,606.3957789,903.6071145,587.2442551,-16.91979596,265.8299128
0.326,-51.74392056,925.7522523,251.3837215,258.014704,606.194607,903.0036294,589.5020676,-17.79150006,265.5170466
0.328,-55.58864712,924.2323548,249.8861629,257.835993,601.3442653,899.5390908,595.804802,-20.36193463,266.9251277
0.33,-58.44948697,923.9418275,249.7074519,257.8135321,602.2160914,898.0862405,595.9395676,-20.74193952,268.2438533
0.332,-59.36599087,926.0652406,249.3270808,257.0762274,602.1489528,897.3486306,592.0499192,-21.01012799,268.8697077
0.334,-61.0422604,941.7561585,241.8842097,257.5230047,602.998318,897.8627298,591.3350754,-20.04900739,269.1603572
0.336,-58.29323697,920.3207337,248.3886043,255.5562079,601.4560817,894.6887796,585.3448411,-24.74291608,262.9912898
0.338,-55.45436978,916.0515687,250.4896785,254.795954,600.7632106,895.4487283,586.5069504,-25.12285993,260.4878718
0.34,-53.53249478,913.0564515,251.3163386,254.8184149,600.4949,897.3039224,585.9034348,-21.904232,266.0757624
0.342,-54.87331509,912.4529359,251.0482722,255.355036,601.6572535,898.1309488,582.617302,-19.22204205,272.0436579
0.344,-54.2922604,917.0797669,251.5175105,256.2715399,604.585232,898.6450174,580.7178879,-17.70208356,273.8765437
0.346,-54.53786587,916.8562562,247.7177058,256.9194891,605.0769313,899.6285074,579.8233567,-17.56798932,270.3449275
0.348,-54.13552212,916.2975404,248.9027644,258.6631415,606.0381129,900.7237527,587.2217942,-15.93633649,271.1272761
0.35,-54.69460415,917.2809388,249.7074519,258.3276922,605.0769313,899.9414346,595.8721848,-16.42803571,271.3061091
0.352,-54.53786587,918.5103089,249.2152644,256.2041571,601.6794703,898.6003396,594.8887864,-20.13842389,262.4771296
0.354,-53.06276822,922.3994691,250.7577449,256.9194891,603.4678004,897.9744851,596.789177,-20.85369489,263.0359675
0.356,-51.11843228,933.6871888,248.9921199,255.7349188,603.1994899,896.7674844,604.1426926,-24.42998883,264.734698
0.358,-49.50905728,926.8251283,247.8075496,253.6787665,601.1430934,897.6615579,601.3936692,-24.80993268,264.4440486
0.36,-48.59255337,907.5355775,247.8519832,250.9292547,601.5232203,897.2592141,588.4288254,-25.27935407,259.906695
0.362,-48.83815884,910.4413392,248.0306941,250.3926337,600.4726832,898.6003396,576.1583176,-19.4455528,254.564654
0.364,-46.69265103,926.8027894,251.3387996,253.1196844,604.0935328,898.4885537,582.7071457,-26.37456891,259.1914851
0.366,-48.63747525,927.1604554,251.7636043,253.7900946,605.3005641,897.2145059,583.8692551,-26.37456891,263.1029841
0.368,-51.96755337,925.2382142,251.1376277,254.5947821,606.4851344,894.8228738,580.7178879,-23.80413434,266.5899226
0.37,-55.36501431,922.6677796,249.8637019,255.1089422,604.4736598,891.8277566,579.0411301,-22.91003034,267.1709773
0.372,-54.24733853,921.9524476,250.556573,254.2817938,602.8418238,892.6994607,579.3995286,-22.70885846,261.2702204
0.374,-52.414819,920.1643617,252.4115535,256.2041571,604.6970485,894.4428994,582.2823411,-21.25603864,261.158404
0.376,-53.04030728,922.6229798,249.3720027,255.0195868,603.6240504,894.3088052,585.2100754,-20.22784039,264.1758601
0.378,-50.60427212,926.5122621,249.6400691,254.3936102,604.1828883,897.0357034,587.2667161,-19.53490827,265.4052302
0.38,-49.77712368,924.2546937,249.7294246,251.5552313,604.8757594,897.5274331,587.5128098,-18.52910993,265.7852351
0.382,-50.961694,922.1759583,248.6342097,250.1245672,605.7029078,896.3428018,586.976677,-17.50091168,268.7356745
0.384,-51.6101315,921.5947816,248.7460261,250.2139227,606.194607,895.6946084,584.8077317,-17.81383893,268.8026911
0.386,-54.73903775,919.3149964,247.7626277,251.2866766,607.2004664,892.4536111,582.0811692,-17.63506696,270.5460993
0.388,-59.38845181,916.54339,246.7567683,253.4551337,609.6592067,890.687803,579.5333176,-16.31628034,274.7705866
0.39,-65.8703854,919.9185121,241.1688777,255.7573797,611.3801539,891.1571939,578.773552,-11.77886579,277.8105036
0.392,-70.42995572,921.5724427,238.3973933,255.6006415,611.4026149,888.5196817,582.5508957,-11.60009381,277.8551814
0.394,-67.81520962,903.2440736,248.5897761,255.1538641,609.7707789,886.1950967,587.1553879,-15.77984235,272.8930232
0.396,-62.02614712,915.0233704,250.0873347,255.0195868,611.8718531,887.7597329,589.0323411,-17.21038434,274.1000544
0.398,-54.78395962,922.1536195,249.9979793,252.3823797,609.9944117,891.7160013,588.7647629,-17.54565045,271.2166316
0.4,-49.73269009,924.9475648,248.4779597,250.3482001,606.5522731,897.2592141,589.054802,-17.25506207,267.0369441
0.402,-48.88308072,923.1818177,248.947198,249.2080633,606.373318,898.6226785,590.3292161,-18.32793805,266.9027888
0.404,-49.95583462,918.130304,248.6122371,249.7671454,608.0273707,896.8121927,593.3243332,-18.77495954,268.5568415
0.406,-51.16286587,912.9447572,249.4388972,250.4375555,606.8652613,895.3593118,590.3292161,-16.15984723,271.4178034
0.408,-50.44753384,917.3927552,251.0038386,254.7739813,608.8545192,894.7781656,585.4786301,-14.28228375,275.1729304
0.41,-50.0007565,925.2382142,252.5682918,263.4238837,613.3025172,894.7334878,581.3214036,-11.06365582,277.8551814
0.412,-49.91140103,923.3829896,251.2050105,258.5288641,609.3908961,892.9453408,576.3145676,-12.62823102,275.9776179
0.414,-47.67604947,919.4938294,252.5682918,254.6841376,602.5066188,889.5031717,571.9561692,-14.79638288,271.5519587
0.416,-49.10671353,916.3868958,249.7743465,251.6890204,600.517361,885.7257364,568.0889817,-17.43389508,268.9815241
0.418,-49.68776822,914.8669984,245.4828425,251.0635321,602.282986,885.5692727,566.1671067,-17.61266705,269.4285456
0.42,-45.0163815,916.9232728,245.7958308,254.9302313,602.5959742,888.7655618,565.3848801,-16.58452985,270.613238
0.422,-40.70241665,919.20318,247.5839168,258.9536688,605.7475856,889.4808023,568.6700364,-16.04809186,271.9766413
0.424,-38.66823697,919.8960511,248.2098933,256.0923407,605.4123805,887.8714883,576.8731614,-20.56310651,269.3167292
0.426,-39.3391354,918.1973206,245.9520808,252.3149969,600.9865992,887.7820718,581.0528489,-22.68651959,267.5509822
0.428,-41.39528775,916.4539124,245.7958308,253.5220282,599.3103297,888.9220254,576.1807786,-19.87023541,268.8473689
0.43,-44.41286587,916.185724,246.1088191,254.9302313,599.6679957,888.6538064,568.4464036,-17.65740582,270.1437556
0.432,-45.39626431,918.8679749,246.0638972,255.0420477,598.7961695,888.2961709,565.742302,-19.6019859,267.394488
0.434,-45.4406979,930.7590882,246.1757136,254.6621649,601.0759547,887.6479776,567.4180832,-21.41247174,266.16524
0.436,-43.36208462,930.2002503,246.8016902,254.9302313,602.3054469,889.9949014,567.9776536,-15.310482,265.2263972
0.438,-40.16579556,910.7095277,247.0697566,254.2373602,605.5910914,893.1465127,570.7940598,-16.47277448,265.0028865
0.44,-39.31667447,903.177057,247.9862605,252.0020087,602.7524684,891.224241,573.3643723,-24.07232282,267.1709773
0.442,-39.07058072,918.9126527,248.7684871,254.0361883,602.282986,889.7937295,570.726677,-21.56896588,269.9873835
0.444,-40.992944,927.4286439,246.2426082,256.1816962,604.7195094,890.1066568,571.1739426,-19.11022565,271.2614314
0.446,-43.49636197,926.0204408,244.1864558,255.5337469,603.6465113,889.3019998,569.6094895,-19.84783551,267.394488
0.448,-44.97145962,924.2323548,245.0804988,255.7124579,604.607693,886.7539041,568.5137864,-19.08788678,265.7405574
0.45,-47.51979947,921.9077699,244.7675105,254.2598212,603.5124781,885.2339761,569.2510911,-17.79150006,265.0028865
0.452,-48.59255337,920.7007386,244.4100886,252.874079,601.1877711,883.110563,569.7208176,-18.93145368,262.2982966
0.454,-47.02810025,920.5443665,244.3876277,253.2539618,601.4114039,883.6023233,568.4688645,-20.29491803,260.800738
0.456,-44.88210415,921.6172425,244.3427058,252.2031805,602.2383082,884.2952249,568.6475754,-21.61364362,263.5946833
0.458,-43.49636197,921.4830872,244.0746394,250.4375555,603.6911891,885.1222207,570.4356614,-20.83135602,265.8969294
0.46,-44.45729947,918.3091371,242.7113582,251.6670477,605.501736,885.5692727,571.8214036,-19.40081403,269.5179011
0.462,-44.03298306,918.2421204,244.0297175,253.4326727,606.8205836,886.9103677,573.7442551,-18.93145368,270.970782
0.464,-40.992944,921.2595765,244.3876277,253.2983954,604.4736598,888.7208535,574.1241379,-20.29491803,265.1370417
0.466,-41.17165493,921.9077699,244.0297175,255.1763251,603.7583278,887.6479776,565.9659348,-18.84203717,263.3264949
0.468,-42.69167447,919.4490296,246.309991,257.2773993,605.5464137,885.3681009,561.9649582,-17.16564557,267.1262995
0.47,-45.68679165,913.9058167,245.3934871,257.4785712,604.8535426,883.5129068,563.9317551,-19.28905866,271.0379206
0.472,-46.20095181,914.039972,243.806573,257.7910712,602.461941,881.769468,564.5128098,-22.30657575,265.4499079
0.474,-44.34548306,917.9067933,244.1864558,255.8018133,599.4890406,881.8141763,565.4737473,-23.46886823,259.6608454
0.476,-43.22829556,917.5715882,244.1864558,254.8184149,600.4949,882.3506143,566.0772629,-23.29003522,260.9125544
0.478,-44.18923306,915.9175355,242.3983699,253.7007391,599.6902125,880.1377847,563.1719895,-25.25695416,260.3090388
0.48,-41.73073697,918.5549867,243.0018855,252.8066962,598.1479762,880.6742227,561.1153489,-26.68749616,252.2847468
0.482,-41.19411587,918.1526429,244.3427058,254.3042547,600.6067164,881.0541971,559.2598801,-24.40758893,254.1623103
0.484,-40.36696743,916.185724,245.3710261,256.3384344,604.250027,881.1212747,567.5528489,-21.63598248,261.337237
0.486,-40.76931118,914.1516663,247.5389949,255.6006415,602.7300074,880.7859781,576.1358567,-21.94890973,261.0913874
0.488,-42.26686978,912.6541078,246.8461238,254.3491766,601.7912867,878.7966897,572.492302,-21.72539899,258.2749812
0.49,-43.36208462,915.8280579,243.4711238,255.4443915,602.640652,879.6013467,568.8712082,-19.08788678,260.0185115
0.492,-44.23415493,916.2527406,244.5438777,258.3726141,604.1828883,880.4730508,570.7491379,-14.88579938,267.573321
0.494,-43.63063931,912.3412415,247.9637996,259.6909735,605.3005641,882.6635415,576.6495286,-11.95769879,271.9989802
0.496,-40.79177212,916.7892396,248.7015925,260.1826727,605.859402,886.1280496,580.7178879,-8.269649477,276.1117732
0.498,-39.04811978,921.6842591,248.1649715,258.0596258,603.7805445,886.7539041,580.6729661,-8.202632875,275.4859187
0.5,-35.80739712,922.2206361,253.216241,258.4839422,603.8476832,886.7539041,578.3712082,-11.44359967,268.6238581
0.502,-34.48854947,927.6968324,250.3109675,260.7417547,607.1557887,886.7315652,578.8174973,-11.98003766,266.6346003
0.504,-39.74147915,948.1263978,241.1019832,259.9370672,610.3967555,885.5469033,579.4434739,-11.04125592,272.6024958
0.506,-41.05983853,929.3062074,248.2098933,258.9536688,609.1003688,881.8141763,575.2637864,-10.92950055,273.9435603
0.508,-40.63552212,921.5054261,252.9481746,261.7026922,610.5085719,881.0765664,570.0557786,-10.77306745,272.401324
0.51,-42.91530728,927.7863099,253.5072566,263.2002508,612.0283473,879.5790078,568.5587082,-8.873165102,275.5752741
0.512,-44.81520962,934.9164369,251.0038386,261.233454,610.5085719,881.4118325,567.351677,-4.112239809,275.2624079
0.514,-44.03298306,931.6531312,250.8920222,259.624079,611.1343043,882.5964944,568.5137864,-1.631221742,276.7376277
0.516,-40.12136197,926.0875794,254.2001277,260.495661,615.7165797,880.9201028,578.5049973,-9.342525453,281.3196589
0.518,-37.93093228,921.348932,256.1444636,260.7861883,617.8845485,881.9259317,580.0030442,-8.224971742,281.4984919
0.52,-36.70144009,920.9242494,257.2172175,260.0713446,619.1587184,882.8870523,577.3428879,-8.873165102,282.1020075
0.522,-33.95192837,914.5316712,258.1561824,261.5239813,619.1809352,883.5129068,577.7003098,-9.923702211,279.5092341
0.524,-33.50515103,907.1779115,260.2797175,261.7251532,620.6115992,881.2106607,579.3995286,-10.12487409,281.2079646
0.526,-34.60036587,917.5044496,261.3075496,261.9712469,619.7397731,879.1319558,579.3770676,-12.1141319,280.0902888
0.528,-35.11452603,932.2343079,259.4301082,260.8980047,617.3034938,878.9084451,576.7169114,-11.98003766,275.3070857
0.53,-38.22145962,933.3295228,255.3173152,257.2549383,614.8672145,879.199003,575.6436692,-12.98589704,273.2730281
0.532,-39.51784634,931.6084535,253.954034,256.5840399,613.7495387,879.9366128,576.4932786,-14.03643414,273.1836726
0.534,-36.25417447,930.8484437,255.8988582,257.7690985,613.6824,879.646055,578.1475754,-13.90227887,274.7705866
0.536,-35.85183072,930.0660951,256.5468074,259.0654852,615.6047633,878.573179,577.476677,-14.23754498,276.134112
0.538,-35.82985806,929.2391908,256.2338191,259.3560126,616.4988063,879.2437112,576.4258957,-12.78472516,276.0222956
0.54,-32.00759243,932.7260072,257.8431941,258.9087469,618.5327418,881.322416,577.2979661,-13.36584088,272.5131404
0.542,-28.49831509,936.0117738,260.6371394,259.8252508,619.8291285,884.1611001,579.7120286,-12.98589704,271.9096247
0.544,-29.43727993,935.0282533,259.9891902,258.9981024,617.5046656,883.6023233,580.0469895,-14.19286725,269.0485408
0.546,-31.73952603,934.1342103,258.7147761,257.0313055,612.3413356,883.5352456,580.5167161,-13.0082359,267.0816218
0.548,-33.57204556,934.1342103,258.6478816,258.2607977,609.6814235,883.8928811,581.2989426,-11.13067243,268.6015193
0.55,-36.09792447,933.3295228,258.6703425,259.6690008,610.5532496,884.1163919,580.0694504,-9.566036195,271.4178034
0.552,-38.04274868,933.7542054,259.2513972,260.7642157,614.576443,883.825834,585.4112473,-9.946041078,275.3294245
0.554,-38.19899868,931.2061097,257.888116,260.9429266,614.1072047,881.769468,588.3624192,-11.46593854,277.4751765
0.556,-35.96364712,930.5355775,258.6478816,262.0156805,612.4978297,882.4847085,583.757927,-10.21429059,277.2740046
0.558,-35.4719479,930.2672669,259.3856746,263.4688055,615.1352809,884.0270059,577.164177,-7.487361879,278.7939021
0.56,-33.63942837,933.9553773,261.1737605,262.3955633,619.5610621,882.842344,579.2647629,-7.241451234,274.6140925
0.562,-31.2922604,939.1185853,262.5595027,262.2617743,620.4104274,882.1047342,585.6348801,-10.10247418,269.9650447
0.564,-31.47097134,937.1963441,261.3524715,260.9873602,614.1294215,882.3729532,584.9874192,-11.62243268,268.0203425
0.566,-34.08620572,932.927179,260.0111629,261.8369696,610.2627223,880.3389566,580.0469895,-12.80706403,267.4392878
0.568,-37.01442837,929.1497132,257.8207332,259.9370672,606.9992945,875.5109842,574.8614426,-16.71862409,264.1311824
0.57,-39.85280728,928.4345033,257.150323,258.3052313,605.5910914,874.4604471,572.0225754,-18.39501569,263.3936335
0.572,-40.00954556,928.1886537,255.4291316,255.355036,604.071316,875.4662759,571.2403489,-19.28905866,260.4878718
0.574,-40.21071743,925.6628968,252.903741,253.7681219,605.0547145,875.9580056,571.5762864,-19.84783551,261.6501033
0.576,-39.67409634,923.3829896,251.6517879,254.2598212,606.5744899,875.1310098,570.3917161,-20.51842877,264.1088435
0.578,-36.65651822,921.7289369,254.5800105,257.7466376,606.8874781,876.2038858,570.6592942,-19.55730817,265.2263972
0.58,-34.30983853,927.9203431,256.6586238,261.3003485,608.5639918,878.7072732,571.8214036,-18.70794293,266.16524
0.582,-30.55446743,937.911554,258.4242488,263.2896063,612.9895289,881.6130044,572.7833176,-17.90325543,266.7910945
0.584,-29.88405728,947.366388,257.5526668,259.9815008,612.4753688,882.7529275,571.9112473,-18.8196983,262.767779
0.586,-32.85671353,944.7959535,257.0609675,258.5957587,611.8049586,880.8306863,571.4415207,-18.55144879,263.5053279
0.588,-36.29909634,931.4072816,254.6918269,258.9536688,609.9719508,878.0367105,570.8380051,-19.33379743,264.6452204
0.59,-39.71901822,920.633722,253.5966121,258.886286,607.1780055,875.5780313,572.7159348,-20.09374616,266.321612
0.592,-41.46218228,917.0127503,254.3339168,257.9478094,606.8652613,874.7063272,569.4083176,-19.69140241,267.4839656
0.594,-44.90456509,928.1438538,249.0814754,256.1372626,606.9768336,875.3321512,567.9776536,-18.41735455,270.3449275
0.596,-44.68093228,936.6375062,246.44378,255.4219305,607.1557887,877.6343972,568.3126145,-17.09856793,267.5063044
0.598,-38.19899868,918.4432923,255.540948,256.0479071,606.7087672,880.3612954,565.0049973,-12.02477643,259.0349909
0.6,-34.35427212,923.7406556,256.7929011,257.6348212,606.1052516,881.5459573,570.7715989,-20.00432965,260.621905
0.602,-32.43239712,925.4617249,257.9325496,256.7407782,604.4511988,881.7247598,570.726677,-20.42901227,262.0747859
0.604,-32.40993618,927.7191712,254.5575496,257.5898993,609.1450465,883.2670266,569.7657395,-16.2492027,266.0087458
0.606,-33.08034634,926.1992738,256.6586238,258.9312079,610.2849391,881.7024209,567.820427,-14.77404401,263.7064997
0.608,-36.47780728,923.5841615,256.1444636,258.3501532,610.5085719,878.9754922,563.8643723,-15.42223737,262.5442683
0.61,-40.56813931,923.6065003,253.797784,257.2100165,610.6872828,877.4332254,562.7921067,-15.10931012,264.4440486
0.612,-42.78102993,921.6842591,254.1552058,257.3218329,607.982693,877.0979593,567.0382004,-12.62823102,265.4945857
0.614,-42.95974087,910.5978333,252.5682918,258.1265204,604.3393824,875.801542,570.1680832,-12.67296979,265.0699031
0.616,-42.89284634,901.7688538,252.9930965,260.9429266,607.468777,876.785032,572.9620286,-11.3318443,269.9650447
0.618,-41.9538815,915.6045472,256.3456355,262.7979071,614.4648707,876.5391519,576.4044114,-10.68365094,274.8824031
0.62,-38.62380337,935.2741029,258.759698,262.7979071,620.3879664,876.248594,577.6104661,-11.10833356,278.2127253
0.622,-33.72878384,941.3984925,260.0560847,260.7192938,620.0527613,876.8967874,576.3819504,-12.94115827,274.9940974
0.624,-30.30886197,942.0690247,259.6986629,259.4898016,618.152859,876.9191263,576.8067551,-13.41057965,274.345904
0.626,-31.024194,939.1409242,258.6928035,256.8076727,613.9507106,875.3321512,574.0118332,-14.595211,269.6297175
0.628,-34.04177212,939.1409242,258.2011043,255.9136297,614.1518824,873.9016397,572.7383957,-14.34936139,269.0932185
0.63,-38.37770962,936.503473,255.8314754,257.120661,614.040066,872.3817422,573.1632004,-14.37170026,269.6520564
0.632,-39.227319,935.0505921,255.9657527,256.7183172,612.9001735,871.9123513,580.695427,-16.60686871,265.9192683
0.634,-37.64040493,933.7542054,256.2338191,257.5005438,616.4316676,872.0241067,579.1758957,-16.31628034,265.6287409
0.636,-36.41091275,932.5248353,255.4965144,258.5288641,616.2304957,871.4876687,569.9893723,-15.19872663,264.9805476
0.638,-34.89089322,932.39068,255.7421199,260.6074774,615.0012477,873.7675454,564.4903489,-13.18706891,264.4217097
0.64,-32.96852993,934.1118714,257.1278621,260.9873602,616.2529567,874.4604471,565.2061692,-14.05877301,265.3382136
0.642,-31.89577603,935.5199525,257.4857722,259.4898016,615.4258082,874.3933999,568.5137864,-15.55633161,264.913531
0.644,-31.71706509,934.9612367,257.0834285,258.5288641,616.3198512,873.6781289,571.5089036,-15.06457135,265.4722468
0.646,-32.83474087,934.1565492,259.0726863,259.6690008,618.2197535,873.2758157,571.3975754,-15.53399274,268.6015193
0.648,-34.84597134,932.6813294,259.5868465,261.0098212,616.3869899,871.264158,570.2569504,-14.37170026,270.1214167
0.65,-37.617944,935.1847474,259.5194636,262.3062079,616.1636012,869.8783242,565.8096848,-12.69530866,272.1331355
0.652,-38.5344479,944.7736146,258.3573543,262.9771063,617.8623317,870.2136209,564.2003098,-11.89062116,272.2671687
0.654,-36.43337368,947.6122376,259.2963191,262.999079,619.9856227,873.4322793,571.6202317,-13.47759625,270.0544001
0.656,-35.3156979,942.8066956,262.0902644,263.2002508,622.3550074,872.605253,578.2589036,-15.86925885,272.5578181
0.658,-32.92409634,938.6045472,265.4877254,265.1001532,622.7573512,871.7782266,577.5215989,-14.86339948,274.345904
0.66,-31.26979947,936.7716615,265.2865535,265.2568915,623.2937281,871.9570596,573.1407395,-14.77404401,275.1505915
0.662,-32.00759243,936.2799622,264.0570613,264.3179266,623.4949,871.264158,570.3692551,-14.86339948,274.0553767
0.664,-31.38161587,938.7162415,265.2416316,265.0332587,625.640652,870.7723977,568.2452317,-14.6846275,274.167071
0.666,-31.22536587,940.4821107,266.06878,265.9941962,626.9370387,871.0182779,567.4180832,-14.75164411,276.491656
0.668,-31.53835415,939.006891,265.4652644,267.827204,624.5229762,870.8618142,567.4180832,-13.29882428,278.3022029
0.67,-33.66140103,936.7269837,263.9008113,267.3355047,620.2314723,870.2583291,569.0948411,-11.1754112,277.8328425
0.672,-37.34938931,935.4976136,262.85003,266.8662665,619.6057399,869.74423,569.8321457,-10.41540143,277.8551814
0.674,-36.88015103,935.6541078,263.0961238,267.3130438,620.0974391,871.3759134,569.9219895,-9.208431215,278.7939021
0.676,-34.57790493,936.2128236,262.7831355,266.6426337,620.2539332,872.4487893,571.039177,-8.113216371,280.0679499
0.678,-32.56618618,936.4587953,263.2748347,266.4190008,622.8913844,872.8958108,571.5089036,-5.565120668,282.8172175
0.68,-31.91823697,936.1234681,263.1180965,265.4131415,622.6455348,873.6110818,571.2403489,-5.78863141,281.0067927
0.682,-31.20290493,934.8494203,262.4926082,264.8765204,620.0527613,875.0639322,567.9102707,-0.357112856,275.6870906
0.684,-29.77224087,933.5083558,265.2865535,265.7485907,621.7290309,874.8627908,569.117302,-1.407649965,275.6422908
0.686,-28.8781979,931.161432,267.9686824,266.1509344,623.9194606,871.5547158,571.2403489,-7.59911725,279.3080622
0.688,-32.36501431,931.317804,264.303155,263.8037665,622.1985133,867.419645,567.4854661,-7.308528871,277.4304988
0.69,-35.29323697,932.413141,261.2181941,261.7476141,619.7397731,864.3798196,566.4346848,-9.051998109,275.8658015
0.692,-36.65651822,930.0214173,260.8158504,263.1777899,619.9634059,863.955137,566.5245286,-9.722530336,277.0058161
0.694,-36.8132565,927.9651429,260.2347957,262.5747626,619.8291285,863.776304,565.1387864,-10.68365094,278.0340144
0.696,-34.5110104,928.479181,262.2914363,261.9712469,621.2373317,865.4974038,564.6690598,-10.34838483,277.6986872
0.698,-33.16970181,927.4733216,263.2299129,261.5908758,619.6504176,866.5255716,568.4913254,-11.80120465,273.7200495
0.7,-32.81227993,925.7299134,263.8558894,260.5850165,616.1411403,865.3409402,575.6436692,-15.19872663,270.791949
0.702,-32.07448697,917.4597718,258.915948,262.2393133,616.1411403,867.956083,574.3477707,-13.0082359,272.5131404
0.704,-30.3757565,913.8388001,259.7880183,263.5801337,616.4316676,869.3195474,567.5977707,-10.39306256,274.70357
0.706,-33.23708462,925.9087464,258.4467097,261.6357977,614.7329371,867.2408426,559.304802,-12.22588727,274.9047419
0.708,-35.04714322,935.788141,257.5975886,261.8594305,613.3471949,866.5926187,558.3663254,-11.10833356,275.0164363
0.71,-38.08718228,933.7765443,257.172784,261.7476141,611.0674098,864.1116006,556.3770676,-11.84594342,270.5237605
0.712,-37.7297604,933.0613343,258.9833308,261.3003485,613.3471949,863.8210122,555.2813645,-12.47179791,266.3887507
0.714,-36.008569,933.9106996,261.1512996,261.6582587,614.9787867,866.4808633,558.2989426,-10.66131207,270.7249324
0.716,-34.48854947,936.4364564,262.7157527,263.9155829,616.6106227,867.8443277,558.1426926,-9.163753481,273.1165339
0.718,-34.48854947,934.3800599,262.3807918,264.9883368,616.8786891,868.3360574,563.4171067,-9.543697328,274.3905818
0.72,-33.19216275,939.5879456,259.47503,263.9155829,616.3869899,870.8394754,571.9112473,-9.566036195,274.9047419
0.722,-32.29811978,948.7299134,255.6752254,261.6357977,613.4365504,871.889982,574.3253098,-9.610774965,275.1729304
0.724,-29.32546353,924.5900208,265.4203425,261.7700751,611.8049586,869.1407449,570.0108567,-10.97423932,274.9047419
0.726,-30.66628384,929.4403626,264.9061824,261.9263251,615.0459254,868.2913797,569.0499192,-10.70598981,277.1846491
0.728,-32.7453854,932.8825013,262.157159,262.3062079,613.4590113,866.6149881,568.3799973,-12.24828717,277.4975154
0.73,-35.29323697,931.7872865,260.5927058,262.1499579,613.6824,865.6091592,567.2618332,-12.15887067,277.564532
0.732,-35.96364712,929.6414124,261.9335261,262.999079,614.8222926,866.4808633,567.2169114,-10.63897321,278.9503962
0.734,-35.02517056,929.4403626,262.4701472,264.429743,617.437527,866.6373269,568.5362473,-9.655452699,282.1690241
0.736,-37.05886197,929.9990785,261.2181941,263.6475165,618.6220973,864.3351114,568.0001145,-10.5495567,284.4936091
0.738,-35.69558072,941.3314759,261.5087215,261.8145087,618.666775,864.0892312,567.4854661,-12.00237653,280.2914607
0.74,-33.4382565,943.0078675,262.5819636,261.4121649,620.27615,865.83267,565.6973801,-13.23174664,278.0786921
0.742,-32.16384243,935.1847474,263.5653621,263.0664618,619.6057399,865.4974038,564.8038254,-12.67296979,277.8998591
0.744,-28.81130337,931.6754701,267.700616,265.9273016,619.5161403,866.8608682,567.0382004,-9.476680727,279.4420954
0.746,-29.54860806,929.9767396,267.5214168,263.8037665,616.9458278,866.279722,562.7921067,-8.671993227,277.8998591
0.748,-31.91823697,927.5404603,265.7557918,262.8652899,612.7436793,865.3856485,559.8184739,-8.224971742,275.7987849
0.75,-33.52761197,926.3110902,263.6322566,264.452204,613.7942164,864.2904031,563.8643723,-10.30364606,275.5082575
0.752,-33.50515103,926.1992738,262.7157527,264.8096258,612.5200465,862.8151834,565.1837082,-13.92467877,274.4577204
0.754,-33.14724087,926.4451234,265.0404597,265.5249579,611.3354762,862.9940164,567.2169114,-13.47759625,276.3576228
0.756,-30.62185025,928.300348,268.8402644,266.8438055,617.1692164,864.4468667,569.6094895,-9.722530336,279.687945
0.758,-28.99001431,925.3722474,269.9579402,267.7603094,618.4880641,866.9502542,566.8819504,-0.424190492,279.687945
0.76,-28.7663815,927.3392884,267.9911433,268.2295477,618.3762477,865.3856485,566.5469895,-4.000484438,279.4644343
0.762,-29.74977993,930.8484437,265.6439754,265.5249579,618.3093531,863.1504495,567.8878098,-11.19775006,279.0397517
0.764,-30.04079556,930.2225892,264.8392879,264.4072821,616.5881617,862.9493081,565.5186692,-10.66131207,277.2740046
0.766,-30.84548306,928.0768372,264.0346004,263.3120672,613.704861,861.4740884,564.9600754,-11.98003766,275.4411189
0.768,-32.43239712,927.6744935,262.5145808,260.1382391,609.3462184,860.4905984,563.9542161,-15.26574323,269.0932185
0.77,-32.67800259,929.552057,262.85003,258.8643133,607.2451442,859.7976968,567.5977707,-17.25506207,264.5111872
0.772,-31.58278775,932.2119691,263.7889949,260.5630438,607.8261988,860.7588174,577.0518723,-16.56212995,267.3498103
0.774,-29.10183072,934.3353822,266.1132136,263.9605047,611.6260035,863.6645486,576.5382004,-11.66711041,274.345904
0.776,-28.92311978,934.1118714,266.9403621,264.5190985,613.9507106,864.580961,574.8165207,-8.068477602,280.3585993
0.778,-29.50417447,929.5073792,265.3309871,264.585993,614.4870875,864.0668924,572.5596848,-6.816768617,282.8172175
0.78,-29.28054165,917.1244447,264.638116,264.0049383,615.2470973,863.7986734,571.8663254,-7.666133852,281.6101863
0.782,-28.52077603,911.6483704,265.6439754,263.6699774,616.2751735,862.9940164,572.5147629,-8.783748598,280.8726374
0.784,-25.30202603,928.836847,269.2426082,263.6025946,618.2868922,864.7821328,572.1124192,-7.710872621,278.7045466
0.786,-26.4641354,939.2974183,268.1698543,263.7593329,616.8564723,865.2068155,572.1348801,-9.342525453,274.6140925
0.788,-29.32546353,937.1293275,267.4096004,265.9273016,616.8564723,864.6703775,573.1856614,-8.560237856,276.8046443
0.79,-32.7453854,934.0670716,267.4320613,266.1733954,616.7893336,864.044523,573.2081223,-6.79442975,281.0961482
0.792,-36.83571743,929.9990785,264.0121394,265.480036,615.3589137,863.0386941,570.6143723,-7.912044496,283.800738
0.794,-36.07546353,925.9534242,266.4711238,266.5083563,616.8786891,861.8093545,568.6036301,-7.375606508,286.2370173
0.796,-34.68972134,925.9981019,266.3143855,267.2686102,620.9690211,862.9269388,568.4239426,-5.363948793,288.2934138
0.798,-34.71218228,937.3304994,262.5145808,266.5532782,623.9865992,862.6587198,567.8428879,-4.179317445,287.0640437
0.8,-34.80153775,941.5996644,262.4476863,264.8545477,623.2043727,861.2058694,569.0948411,-6.816768617,279.1962458
0.802,-34.71218228,951.9262025,258.6478816,266.6650946,624.5454371,861.8093545,572.4473801,-7.017940492,278.9503962
0.804,-32.03005337,943.4995667,262.4032527,266.3071844,625.5959742,862.3905008,573.7667161,-6.302730531,280.3137995
0.806,-31.64968228,923.6511781,267.4320613,265.7710516,622.7348903,861.2729165,574.101677,-6.056819887,283.7783991
0.808,-34.5110104,924.9699037,263.9677058,264.1616766,617.6833766,859.9318216,572.5596848,-5.699214906,283.1748835
0.81,-35.89675259,925.4170472,263.0736629,262.7979071,613.9282496,858.3671853,569.4522629,-6.593257875,277.7880427
0.812,-36.67897915,927.6298158,263.5653621,264.3628485,614.8222926,858.8365762,571.2178879,-5.542720766,279.8667781
0.814,-33.7507565,928.1886537,265.2416316,265.0332587,616.9458278,861.1388223,572.9620286,-3.285213441,282.8618952
0.816,-34.19802212,926.2887513,263.8558894,263.9155829,616.4763453,860.2223794,570.4581223,-3.128780336,282.549029
0.818,-35.02517056,922.8912904,261.7098933,263.7593329,614.934109,858.6354043,566.8145676,-2.01116559,284.4265925
0.82,-32.07448697,921.7289369,264.2133113,263.9155829,612.5200465,859.7083108,566.3682786,-2.346431703,284.1136042
0.822,-27.805444,925.0817201,263.922784,263.8037665,612.6318629,861.3399637,563.5069504,-4.62633893,278.5927302
0.824,-25.52565884,931.1166322,263.7216121,264.4072821,613.3694117,860.7811868,561.4503098,-5.654476137,274.5470759
0.826,-24.60915493,932.39068,263.6771785,265.1895087,614.4199488,859.5741861,562.0762864,-5.989803285,274.2118708
0.828,-29.16872525,927.0933167,262.0678035,265.5249579,613.0342067,855.5285318,558.8135911,-6.168575258,277.5869929
0.83,-34.06374478,923.1148011,261.6205379,265.3687079,612.8554957,851.4381387,560.8917161,-5.654476137,282.8843562
0.832,-35.42751431,919.382013,260.7045222,266.1733954,613.5483668,851.4157998,568.7374192,-4.201656313,289.0310847
0.834,-36.38845181,916.0292298,260.7938777,265.5024969,615.1352809,853.60626,568.6251145,1.498050719,288.4945857
0.836,-32.16384243,919.5161683,266.7616511,266.0166571,619.8515895,853.2709939,574.3028489,-5.408626527,290.2603327
0.838,-30.84548306,925.9087464,267.5663386,267.2012274,624.5454371,852.1534097,579.7120286,-6.43682477,291.5120417
0.84,-28.69948697,929.9990785,268.1029597,266.0835516,628.2558863,853.2933328,585.0762864,-7.755550356,286.1700007
0.842,-24.89968228,933.0165345,271.6791316,265.8823797,632.3015406,856.0426004,583.8692551,-6.503841371,282.1466853
0.844,-23.55837368,932.7260072,273.1317683,265.9722235,635.3635524,858.0319192,576.9180832,-4.604000063,282.906695
0.846,-25.43630337,931.2731263,271.1649715,264.2285712,631.0051539,856.8249185,565.9659348,-6.079158754,274.5023982
0.848,-27.805444,928.7473695,267.700616,262.5967352,619.2033961,855.2826516,565.9883957,-5.363948793,272.5354792
0.85,-28.54323697,928.3226869,266.22503,261.054743,607.2226832,856.5119912,569.8770676,-4.872188539,271.9319636
0.852,-29.05690884,928.0544984,267.3651668,260.5630438,608.6308863,857.5625283,571.5313645,-5.408626527,271.5966365
0.854,-28.49831509,928.836847,267.6332332,260.5181219,609.055691,857.4060647,572.4473801,-6.593257875,271.9766413
0.856,-27.82790493,929.2391908,266.22503,259.5791571,607.0664332,856.2214334,572.3135911,-7.666133852,273.2283503
0.858,-26.91140103,927.9874818,266.06878,258.9536688,608.9438746,857.4954812,571.5538254,-6.03448102,275.7094294
0.86,-23.58083462,929.1497132,267.4769832,259.0430243,612.1179469,860.0882852,571.1739426,-5.296871156,277.7657038
0.862,-22.79860806,930.0437562,267.7225886,258.7969305,613.8166774,859.7529886,571.2852707,-5.22979352,277.4751765
0.864,-25.77126431,928.7473695,267.3651668,259.2217352,616.0964625,857.6295755,572.0674973,-5.363948793,280.4256159
0.866,-28.05104947,926.8474671,269.0414363,260.0039618,622.8020289,856.4896524,572.0010911,-3.195796938,288.9416072
0.868,-30.28640103,920.812555,269.7567683,260.6299383,623.5620387,856.1320169,570.570427,-2.234676332,291.1320368
0.87,-31.15798306,907.5579163,270.9413386,261.4121649,618.3762477,856.914335,569.5645676,-2.100582094,287.8017146
0.872,-31.024194,917.6832826,271.6791316,260.5181219,615.6716578,858.2330911,569.429802,-2.681697816,282.6607234
0.874,-27.42556118,942.4937074,269.5331355,259.2666571,611.8718531,860.5353067,570.9727707,-5.945064516,271.5519587
0.876,-27.69362759,941.4655091,265.2191707,256.2041571,608.876736,859.5741861,572.0450364,-8.873165102,268.5121638
0.878,-25.90554165,930.8484437,268.9520808,258.5513251,610.0168727,858.8812845,573.2969895,-6.302730531,273.0048396
0.88,-25.92800259,923.9418275,270.6508113,257.4336493,610.7990992,857.2048929,574.4590989,-4.559261293,275.6646296
0.882,-24.72097134,926.2439515,268.0804988,256.382868,612.810818,857.7413308,574.5938645,-5.878047914,274.1000544
0.884,-22.30690884,931.317804,271.6117488,257.0537665,616.8786891,858.3671853,573.9678879,-4.916927309,273.6530329
0.886,-25.52565884,930.4460999,270.4496394,255.5786688,614.9118922,856.5343606,570.4356614,-5.520381898,274.345904
0.888,-27.51491665,930.8707826,268.4828425,255.8242743,614.0847438,854.1874063,567.195427,-7.576778383,274.3235652
0.89,-28.65456509,930.4237611,267.678155,256.070368,614.9787867,852.5557534,566.3907395,-8.537898988,274.3012263
0.892,-28.05104947,931.6531312,268.594659,258.7075751,615.5376246,853.4945047,567.664177,-5.63213727,277.7657038
0.894,-28.8781979,942.560724,263.8334285,257.6572821,613.7717555,854.2768228,568.9385911,-5.833309145,275.1059138
0.896,-29.12429165,951.8814027,260.1454402,256.9863837,615.3589137,856.2437722,568.961052,0.514591246,273.6306941
0.898,-25.07839322,929.552057,271.2767879,258.0596258,617.6611598,855.6402871,569.2960129,0.626346617,276.8269831
0.9,-24.78786587,933.0613343,271.6342097,260.2275946,620.9690211,854.9026773,574.8614426,-5.296871156,284.7394587
0.902,-25.74929165,931.6084535,268.4154597,258.5957587,618.2197535,853.7627237,570.1007004,-6.235652895,281.5878474
0.904,-25.86061978,927.4733216,267.8119441,257.858454,616.8117945,853.4274575,567.8653489,-5.140438051,282.0796687
0.906,-26.68776822,922.3771302,267.2084285,257.6348212,615.3811305,854.7909219,565.7872239,-5.498043031,280.4702937
0.908,-27.78298306,921.6619203,266.3368465,256.3159735,612.9448512,853.0921914,563.7305832,-8.001461,273.8988825
0.91,-29.97341275,921.0137269,264.8842097,256.7632391,612.3413356,851.1922891,564.6690598,-9.163753481,273.7871882
0.912,-31.04665493,920.0078675,263.5653621,255.6899969,609.7932399,850.4323098,571.0616379,-12.29296491,270.9261042
0.914,-29.92897915,921.0360658,265.4203425,256.382868,610.2849391,849.9629495,574.5938645,-13.34350202,272.8930232
0.916,-29.32546353,915.9622132,268.3036433,257.5005438,610.4638942,848.800657,564.6465989,-10.57189557,274.8824031
0.918,-28.14089322,913.2799622,268.4603816,253.6113837,610.6426051,848.1524331,547.9278489,-11.01891705,270.7696101
0.92,-26.48659634,918.9349915,266.3368465,245.1401922,609.9944117,848.7559488,538.6075364,-15.310482,262.5442683
0.922,-24.22927212,924.6346986,268.1473933,253.0752508,615.4035914,849.6947305,547.6592942,-12.40472028,267.9086482
0.924,-22.53054165,926.1992738,270.5839168,257.6572821,617.5493434,851.4605081,555.4161301,-9.163753481,272.2001521
0.926,-22.15065884,925.3275697,272.7294246,259.7134344,617.5493434,854.7015054,559.6622239,-6.392086,274.9940974
0.928,-23.26784634,924.9028871,274.3612605,260.6748602,615.1352809,853.2262857,563.8419114,-5.565120668,276.849322
0.93,-24.67604947,923.5394837,271.8578425,261.389704,609.5473903,853.4274575,568.4464036,-3.97814557,276.670489
0.932,-26.039819,924.0758607,268.6615535,260.2500555,609.2790797,854.7238443,570.3467942,-2.994625063,278.1680476
0.934,-25.14577603,933.3742005,268.1923152,258.730036,608.1616481,854.6567971,572.3585129,-2.860530824,275.6870906
0.936,-26.33034634,938.5822083,266.8959285,257.0982001,607.2898219,853.7627237,573.1856614,-1.921749086,279.0174128
0.938,-26.08425259,932.1671693,267.6332332,256.4946844,610.5532496,854.6567971,573.8780442,-0.826534242,285.588824
0.94,-24.40798306,924.3440492,269.5331355,257.2324774,613.704861,852.8463113,571.8438645,-1.407649965,288.8522517
0.942,-23.24587368,921.8407533,271.3661433,256.3384344,613.1013453,850.7005594,569.6094895,-6.257991762,281.4538142
0.944,-23.40212368,923.9193665,271.1425105,257.1431219,613.3694117,851.8851907,568.6251145,-5.162776918,281.9901911
0.946,-26.01735806,924.2993714,268.2367488,257.679743,611.6260035,852.4216287,565.7872239,-4.469844789,284.6277644
0.948,-26.71022915,926.3557679,268.4828425,257.9478094,610.5085719,851.5499246,562.4122239,-6.481502504,280.939654
0.95,-27.69362759,921.7736146,269.2201472,257.7241766,607.5581324,851.8404825,563.9991379,-6.570919008,278.279864
0.952,-28.11843228,909.2566468,268.3261043,256.7407782,604.6970485,851.66168,567.3741379,-8.068477602,274.167071
0.954,-25.59255337,915.2022035,269.5780574,259.445368,605.859402,851.929899,570.5479661,-7.241451234,273.0495173
0.956,-23.31276822,934.5140931,271.0082332,261.9038641,608.1169703,853.5839212,574.0118332,-5.520381898,275.0164363
0.958,-23.04470181,939.6550843,270.3827449,263.1777899,609.9944117,855.2379434,575.0626145,-5.878047914,275.3964411
0.96,-21.211694,937.6433656,270.6732722,264.6309149,611.6931422,854.2321145,573.9678879,-5.810970277,278.279864
0.962,-20.49636197,935.4529359,273.3329402,264.2510321,614.3083766,851.5946023,572.0010911,-5.073360414,279.0845515
0.964,-20.11647915,934.8047425,273.6683894,263.8931219,616.0293238,851.214628,573.3643723,-3.754634828,279.9562556
0.966,-21.09987759,933.7318665,271.8129207,263.1777899,611.3579371,851.7734353,573.1182786,-3.486385316,279.0174128
0.968,-25.59255337,935.4529359,266.6273738,261.5689032,607.8261988,850.3652627,571.7999192,-3.57580182,276.9163386
0.97,-31.09108853,943.9019105,260.369073,262.9097235,608.5639918,851.3487527,573.0069504,-1.854732484,279.7997615
0.972,-28.83376431,921.4160706,269.5331355,263.3569891,609.8825953,850.8569925,572.6710129,-2.949947328,279.5762507
0.974,-27.9172604,924.2993714,270.0248347,261.7476141,612.6990016,852.6675088,577.2530442,-2.122920961,280.604449
0.976,-26.196069,927.763971,270.3827449,262.0825751,609.6592067,854.5003335,584.0255051,-1.541805238,280.6938044
0.978,-24.78786587,928.5461976,269.4213191,260.5850165,609.0110133,853.9862649,582.9981614,-3.195796938,278.7045466
0.98,-23.93874478,928.0991761,269.6449519,258.4839422,610.665066,852.0863626,587.5352707,-5.520381898,280.9173152
0.982,-19.98220181,930.2225892,274.2045222,256.4502508,611.3354762,851.2593362,584.2491379,-6.481502504,279.3304011
0.984,-17.52370572,932.9718568,276.7079402,257.3667547,612.073025,852.6228006,574.2354661,-2.525264711,278.6598689
0.986,-18.82009243,935.6764466,272.2377254,259.9370672,614.934109,855.0814798,562.9932786,6.191898375,280.0902888
0.988,-19.8703854,940.3256165,275.4789363,261.2783758,616.8786891,851.5946023,563.1495286,-5.207454652,277.8105036
0.99,-23.55837368,938.8727357,275.6801082,262.3735907,617.1023219,849.8064859,565.4073411,-5.967403383,278.458697
0.992,-25.79372525,936.32464,274.271905,262.6416571,615.3589137,850.4770181,566.8370286,-4.760433168,278.5703913
0.994,-25.57009243,935.251764,272.6400691,262.6191962,614.3530543,851.7063577,569.2286301,-3.531063051,278.0340144
0.996,-23.6257565,936.2128236,273.712823,263.1777899,616.0517848,853.60626,571.9112473,-1.519405336,282.8172175
0.998,-22.77614712,937.0846497,274.6517879,263.9605047,616.9458278,854.321531,570.1231614,-1.430049867,280.3137995
1,-22.10573697,937.6880433,273.6908504,263.8931219,616.543484,853.60626,565.6524582,-3.329952211,276.2234675
1.002,-23.6257565,934.9164369,272.0140925,262.6416571,614.8000758,852.7121866,559.2159348,-3.218135805,274.4130427
1.004,-25.3913815,931.7872865,271.947198,263.2002508,615.7387965,852.2204568,562.7022629,-0.960628481,276.9386775
1.006,-28.05104947,928.6356751,271.0980769,261.3452704,612.9673121,850.0970437,565.586052,-4.62633893,273.4518611
1.008,-29.43727993,929.7532288,272.3046199,259.8701727,611.0674098,849.0241678,565.3848801,-5.900386781,273.9658991
1.01,-31.33718228,932.9718568,272.5731746,261.077204,609.7261012,848.532438,562.9483567,-4.805110902,277.8105036
1.012,-31.33718228,931.6307923,270.8744441,263.9155829,611.3354762,849.5829446,562.3897629,-3.888729066,280.939654
1.014,-28.02907681,927.2051331,271.5004207,264.0498602,610.0168727,850.0299966,561.7413254,-3.531063051,276.1787898
1.016,-25.68190884,921.7736146,271.1425105,261.4790594,607.0439723,850.9911172,562.0098801,-2.860530824,275.8211238
1.018,-24.13991665,919.8960511,270.0472957,258.6631415,607.0217555,851.66168,561.8526536,-4.201656313,276.4246394
1.02,-21.63649868,922.958307,272.2152644,256.9863837,609.949734,852.2428262,562.2999192,-6.168575258,274.3905818
1.022,-20.87624478,928.5238587,275.165948,259.3335516,614.3083766,853.8298013,564.6915207,-4.872188539,278.3692195
1.024,-18.88698697,933.7095277,275.9032527,260.2725165,615.0681422,854.58975,564.4678879,-4.179317445,277.2293269
1.026,-18.77517056,932.0554749,275.6351863,259.6690008,610.3520778,853.6286294,564.6465989,-6.056819887,273.7200495
1.028,-22.35183072,927.0933167,275.9257136,258.3945868,607.111111,849.6500222,562.6133957,-7.710872621,272.5354792
1.03,-24.67604947,925.618097,272.7069636,259.9595282,607.446316,849.3594339,562.7471848,-4.62633893,272.580157
1.032,-25.41384243,927.6521546,271.5673152,260.0039618,607.982693,849.6500222,562.7696457,-3.151119203,276.6928279
1.034,-25.12331509,928.4568421,271.969659,260.4063055,608.1616481,849.4711892,560.9590989,-4.536922426,276.6481501
1.036,-21.81520962,932.0107972,274.450616,262.3735907,611.6931422,850.5440957,560.7354661,-3.352291078,276.7823054
1.038,-21.367944,930.2672669,275.5682918,262.1724188,615.1577418,848.8677041,563.5743332,-3.262874574,280.1350886
1.04,-20.89870572,915.5151917,274.6293269,259.624079,615.0681422,845.9619729,567.2169114,-5.408626527,278.6598689
1.042,-19.49050259,909.1002747,275.1434871,257.2100165,614.4199488,846.565458,567.0382004,-6.481502504,273.4741999
1.044,-18.52956509,923.9641663,277.0433894,258.014704,616.0517848,847.2136819,561.070427,-6.146236391,272.8036677
1.046,-19.19997525,936.5928285,277.5350886,259.7134344,616.9458278,847.5042398,555.1924973,-5.945064516,274.8600642
1.048,-21.01052212,933.7765443,276.3055965,260.7192938,615.8506129,847.5266092,553.4483567,-5.967403383,276.1564509
1.05,-23.35720181,929.6190736,275.5907527,260.9653876,616.6999781,846.1631448,556.7794114,-5.140438051,279.1962458
1.052,-22.2844479,930.2672669,276.4623347,262.3286688,618.7785914,848.9347513,563.2159348,-3.240535707,279.1292292
1.054,-22.86550259,929.0380189,275.3671199,263.8486883,620.0527613,849.6276529,567.507927,-2.681697816,277.9445368
1.056,-23.29030728,926.4004456,274.4955379,264.6533758,620.5891383,847.6830728,568.1114426,-2.637020082,281.0961482
1.058,-24.94460415,923.5394837,272.7743465,263.6699774,618.5774195,846.2078531,567.6192551,-2.502925844,282.4820124
1.06,-23.51394009,923.6065003,272.7743465,264.3179266,619.2480738,846.565458,569.0948411,-2.301753969,283.3090388
1.062,-21.99392056,923.9641663,274.271905,264.5415594,621.5503199,846.2525613,576.8731614,-4.067501039,283.5548884
1.064,-21.65847134,922.2877747,275.5233699,262.7979071,618.8232692,846.3866555,578.773552,-5.02868268,277.3410212
1.066,-23.6257565,918.7561585,273.8471004,262.2837469,614.0178492,845.3808267,569.0059739,-4.872188539,270.9931208
1.068,-26.28542447,917.7279603,274.8080379,263.3345282,615.470486,844.889097,559.4385911,-3.084041566,275.9106013
1.07,-31.11354947,913.9058167,273.9813777,262.7979071,615.314236,843.4362161,555.0801926,0.380435973,281.2526423
1.072,-34.242944,910.2401673,272.81878,262.5523016,615.7165797,843.816221,555.2364426,8.181217223,288.2934138
1.074,-30.71120572,914.0846497,277.0883113,264.1167547,620.6115992,844.173826,563.3956223,0.782779723,293.7696101
1.076,-28.83376431,914.7775208,278.0043269,264.8545477,621.3044703,844.173826,564.7813645,0.849857359,290.7744929
1.078,-26.8445065,917.0127503,278.9657527,263.9605047,620.1645778,845.8949258,564.445427,-1.653560609,279.9114558
1.08,-25.63747525,917.9291322,278.0941707,260.6074774,617.437527,845.3808267,561.4952317,-5.945064516,266.2322566
1.082,-24.74343228,915.1351869,277.9823543,259.5791571,617.437527,844.9338052,560.6905442,-7.241451234,261.9630915
1.084,-24.40798306,915.2245423,279.4574519,259.4004462,619.024441,845.8949258,563.0596848,-5.22979352,265.8522517
1.086,-25.54811978,921.6619203,275.500909,259.5122626,619.6279567,845.0678994,564.5352707,-3.665218324,268.1321589
1.088,-26.66530728,923.5618226,273.8471004,259.9370672,615.0906031,843.3244607,564.0880051,-2.748775453,269.9873835
1.09,-28.81130337,921.5054261,271.790948,258.7075751,608.4297145,842.6539285,566.2335129,-3.262874574,271.8201472
1.092,-30.19704556,921.1477601,271.8353816,259.780329,609.055691,844.1067788,568.0001145,-1.720577211,274.5470759
1.094,-27.67116665,923.8746888,275.9706355,261.3452704,612.5871852,846.0066812,571.1290207,0.827518492,279.7327449
1.096,-24.13991665,923.4276673,280.2172175,262.105036,615.4482692,846.9454629,572.336052,1.788639098,282.3255183
1.098,-24.49733853,931.317804,276.4623347,259.3335516,618.9128688,847.6607034,573.0284348,0.671024352,280.2244441
1.1,-23.17849087,939.3867738,276.3055965,259.780329,626.1101344,849.4711892,574.5264817,2.034488707,282.3255183
1.102,-21.56911587,934.9164369,278.8763972,261.5239813,627.6523707,849.1359231,574.1915207,3.129703551,285.1194636
1.104,-20.6750729,927.4286439,278.9657527,262.2168524,621.4385035,850.2982156,576.2921067,4.850833922,287.0640437
1.106,-21.14479947,924.1205384,278.6527644,261.948786,614.8672145,849.9629495,575.3760911,4.359073668,284.5606257
1.108,-22.41872525,946.1818177,274.3612605,262.9097235,617.5046656,849.426481,575.5997239,4.403751402,280.8279597
1.11,-20.94362759,936.503473,280.4183894,262.0156805,618.8232692,847.9959695,575.8008957,0.112247496,275.2176081
1.112,-21.05495572,926.4227845,282.8773738,261.6357977,618.5552028,845.1349466,571.6876145,-2.189998598,275.3964411
1.114,-19.82595181,932.5471742,282.3407527,261.7026922,621.8408473,846.6772439,567.7989426,-0.826534242,277.2963435
1.116,-17.36696743,935.6764466,281.6254207,260.8086493,618.4880641,847.5936563,564.2442551,0.022830992,276.5139949
1.118,-16.29421353,936.4139954,283.1229793,259.9815008,621.1255153,847.7501199,565.1163254,1.810977965,277.743365
1.12,-13.07546353,936.5481507,285.4252254,263.3120672,625.8193629,849.2700479,575.1299973,1.76630023,279.531573
1.122,-11.6672604,937.2186829,286.8558894,264.7427313,627.9428981,849.2700479,578.8399582,1.296878844,281.4314753
1.124,-12.00270962,936.5704896,287.459405,263.6919501,628.3227809,848.532438,577.0294114,1.252201109,283.9124324
1.126,-12.0476315,934.0447328,288.5990535,264.0723212,628.3452418,849.0241678,575.7335129,1.922733336,283.9572322
1.128,-13.18727993,931.4519593,291.2142879,264.5190985,627.4511988,849.9852884,574.6827317,3.308536559,284.4265925
1.13,-15.02028775,927.8533265,290.9462215,263.6919501,624.1206324,849.6500222,576.4258957,2.749759703,282.9960505
1.132,-17.25515103,925.8864076,287.5262996,264.9663641,625.9089625,850.8123147,579.242302,3.263858824,285.767657
1.134,-16.47292447,919.7843568,287.794366,264.8989813,627.0041774,850.7452371,581.3438645,2.995609312,286.0806452
1.136,-14.84157681,913.2129456,287.7274715,265.0557196,626.4675563,850.9911172,582.8633957,3.17444232,286.5276667
1.138,-13.07546353,928.300348,288.4877254,265.2568915,625.4841578,851.2369973,581.3887864,2.36975482,284.6724421
1.14,-12.06960415,942.3595521,288.8226863,265.1001532,626.1994899,851.929899,580.4942551,3.085025816,285.6111628
1.142,-13.72390103,940.7502992,287.0121394,262.7979071,625.461941,849.9182412,576.7169114,0.872196227,279.9114558
1.144,-15.02028775,938.1575257,285.5819636,262.9771063,622.2878688,849.158262,574.6827317,-2.458187074,272.6024958
1.146,-16.69655728,932.4801576,283.8832332,263.558161,617.1692164,848.8453347,573.2520676,-1.854732484,271.9989802
1.148,-18.08229947,931.0942933,281.7147761,264.429743,615.7165797,848.353605,573.7667161,-0.670040102,274.1894099
1.15,-20.76442837,928.3673646,280.5077449,265.4131415,616.2529567,848.085386,579.9356614,4.426151305,275.1059138
1.152,-21.12233853,928.7026917,281.4467097,266.0166571,617.9516871,846.8783853,581.5001145,3.353275328,274.1894099
1.154,-20.09401822,927.5404603,282.5643855,265.6592352,619.4939235,845.7831704,578.4151536,-1.228877992,279.1962458
1.156,-21.01052212,921.2819154,281.1786433,264.1392157,617.5493434,847.01251,568.0440598,1.96741107,281.0514704
1.158,-19.04372525,920.0748841,280.5971004,261.9038641,616.8786891,848.085386,560.4444504,0.447513609,276.3799616
1.16,-17.0320065,922.5559632,284.084405,263.5132391,619.6950953,849.2029702,561.2051926,-0.938289613,276.9163386
1.162,-16.62966275,924.388849,283.5702449,263.2451727,620.3208278,849.1359231,561.4952317,-0.647701234,276.6928279
1.164,-16.58474087,923.8970277,281.0668269,263.2676337,619.1140406,849.2700479,566.0997239,-0.178340883,276.0669734
1.166,-18.70827603,920.9465882,280.5077449,265.0776922,620.6115992,847.6383645,570.3467942,0.96161273,282.2808406
1.168,-20.83181118,920.9019105,281.200616,266.4190008,621.1032985,847.7724588,571.1065598,1.96741107,286.0806452
1.17,-24.09499478,918.3984925,280.150323,264.9439032,619.7173121,845.6043374,568.7149582,0.492252379,284.7171199
1.172,-24.76540493,918.3538148,279.5917293,263.2676337,618.8232692,844.6655862,568.9385911,-0.312435121,282.9513728
1.174,-23.33522915,917.951471,278.563409,263.9380438,617.9292262,844.6655862,569.8546067,0.134586363,285.5218074
1.176,-21.79274868,916.9009339,278.8090144,262.5073797,615.649441,846.2301919,570.570427,-0.625362367,283.3983943
1.178,-16.96462368,922.5336244,281.6703425,261.8594305,616.7446559,849.0241678,571.3301926,-2.949947328,272.7143122
1.18,-13.07546353,925.8192689,283.8832332,259.2886297,616.8786891,850.0747049,572.8057786,-7.241451234,260.1525447
1.182,-12.91921353,927.3392884,284.1957332,261.054743,620.5891383,849.7841165,576.0909348,-3.486385316,271.0602595
1.184,-11.82399868,928.9038636,285.2240535,261.6357977,623.0700953,850.4993875,574.3702317,0.60400775,276.6258113
1.186,-12.06960415,928.8591859,286.0956355,262.6860907,621.1255153,850.7676065,573.1856614,1.676883727,277.0728327
1.188,-13.36599087,929.1497132,285.6488582,263.8931219,618.7785914,850.1194131,572.4698411,1.252201109,276.5811335
1.19,-14.68483853,928.1438538,284.9110652,264.5190985,617.2810328,850.4770181,571.3301926,1.006290465,275.0612361
1.192,-15.4226315,927.6968324,285.6713191,266.5532782,615.7165797,850.9687783,571.0616379,0.224002867,273.8318659
1.194,-13.47780728,931.2284486,287.638116,266.3521063,616.9905055,851.5722635,572.2462082,0.894535094,276.2904841
1.196,-12.96364712,935.430597,288.8676082,264.8545477,618.5327418,850.4770181,572.336052,3.040348082,280.8056208
1.198,-13.74636197,933.3071839,285.3583308,264.3179266,620.656277,849.5382669,571.8438645,5.946048766,285.6559626
1.2,-14.57302212,929.0380189,282.3856746,263.9605047,620.4104274,849.873533,571.2403489,7.086002379,287.6675593
1.202,-14.79665493,923.4723451,281.4017879,263.6250555,617.5940211,848.532438,569.2510911,5.968387633,283.8230769
1.204,-14.19313931,923.2711732,284.1063777,264.1392157,616.5881617,848.7782876,567.5753098,5.320194273,276.6258113
1.206,-15.80251431,922.1312806,282.5868465,264.2510321,615.4258082,847.8618753,563.3731614,3.889713316,271.6413142
1.208,-18.35085415,921.4607484,281.4017879,263.4907782,615.3364528,846.4760721,560.7803879,2.056827574,272.6695124
1.21,-19.53542447,920.991388,281.6703425,264.2285712,614.8222926,846.9678018,560.8692551,1.721561461,273.7200495
1.212,-21.01052212,920.6560609,281.1786433,263.1333563,614.3752711,845.2914102,562.0538254,1.721561461,273.4518611
1.214,-19.15505337,922.5336244,280.5077449,262.3062079,615.9177516,843.9503152,562.9932786,-0.357112856,272.5354792
1.216,-17.52370572,923.8300111,280.9994441,263.5357001,619.3374293,845.1796548,564.4229661,-0.759456606,274.9270808
1.218,-15.82497525,923.9641663,281.6254207,265.1001532,622.2878688,847.9065835,566.5694504,1.453372984,276.7151667
1.22,-12.852319,925.5287415,283.6146785,268.0059149,624.746609,851.0358255,567.0606614,4.314395934,277.922198
1.222,-12.56130337,926.5122621,284.2181941,266.8662665,624.5229762,851.8851907,564.8477707,4.895511656,278.5703913
1.224,-13.52272915,925.0593812,284.2855769,266.8662665,623.6289332,854.0980203,560.757927,6.303653746,281.6549861
1.226,-15.02028775,920.6560609,286.3641902,266.1733954,617.1023219,854.0086038,562.367302,4.22497943,278.7045466
1.228,-17.25515103,920.6560609,282.3407527,263.8262274,613.9729274,851.8628213,572.1348801,-1.00536725,275.41878
1.23,-20.54128384,922.2877747,279.6810847,263.5357001,616.2751735,849.7617776,583.2432786,-2.189998598,278.995074
1.232,-23.06667447,920.5890443,278.8983699,263.4238837,614.8894313,850.1194131,575.5323411,4.850833922,278.1457087
1.234,-21.68093228,913.9729554,278.2279597,262.5523016,615.1352809,851.8628213,565.9659348,5.744876891,278.4138972
1.236,-18.32839322,906.1050355,280.7313777,263.4463446,619.7397731,852.3992898,564.0655442,-0.670040102,281.7220027
1.238,-16.74147915,914.1069886,278.8090144,264.1392157,618.5998805,855.5061624,565.6299973,3.01794818,283.1525447
1.24,-17.36696743,934.2235658,272.4164363,262.9546454,615.0906031,857.9201638,570.1231614,4.873172789,283.5995661
1.242,-20.69753384,954.6978089,263.6322566,259.3335516,616.3198512,858.1436746,569.0499192,2.302738219,278.7045466
1.244,-20.42946743,930.3344056,271.5673152,256.8970282,615.1799586,855.4391153,563.3956223,0.246341734,276.7376277
1.246,-24.78786587,922.243097,270.3153621,257.0537665,614.9787867,854.1203592,562.8809739,1.76630023,283.3537165
1.248,-27.69362759,920.1867005,268.4828425,257.2773993,615.1352809,853.4945047,562.7921067,1.676883727,284.5830866
1.25,-27.42556118,922.1089417,270.0697566,257.0537665,615.2024195,855.0144326,564.5128098,-1.787654848,275.9776179
1.252,-26.66530728,924.2770326,270.0922175,257.2549383,616.185818,856.3331888,565.1612473,-4.693355531,269.2497126
1.254,-26.59841275,932.1001527,267.9462215,257.4785712,614.6435817,857.7637002,561.2715989,-3.911067934,268.9815241
1.256,-27.71608853,930.8261048,264.6830379,254.8633368,608.340359,857.8754556,558.0089036,-4.402828188,265.8522517
1.258,-28.36403775,921.5724427,261.5087215,252.874079,603.4678004,857.4731118,556.1534348,-2.569942445,267.2381159
1.26,-27.98415493,915.0233704,261.0394832,253.3877508,604.8757594,856.7131631,555.4825364,-2.972286195,269.6073786
1.262,-27.82790493,909.7036683,261.0394832,253.5669501,605.323025,854.9250161,551.9962082,-5.38628766,268.3333308
1.264,-28.96755337,906.6191956,258.938409,252.5830633,605.2112086,854.0309427,549.6710129,-7.822627992,264.7123591
1.266,-30.55446743,904.8534486,256.1444636,252.2031805,603.3113063,854.0980203,548.3301926,-8.940181703,259.6385066
1.268,-33.01345181,903.2887513,254.110284,252.5161688,601.0537379,853.785093,547.0782395,-8.493160219,264.377032
1.27,-35.06960415,902.7747132,253.6635066,252.5161688,598.9751246,853.7180154,547.7491379,-8.023799867,267.5063044
1.272,-35.91921353,902.0593812,253.2611629,249.2305243,598.5056422,852.7121866,546.3409348,-11.1754112,263.661822
1.274,-36.58962368,900.8748109,252.4789363,246.0791571,598.1032985,851.0358255,544.6866379,-13.96935651,259.1914851
1.276,-35.85183072,900.0477845,252.0990535,244.5366766,594.6611598,851.3710916,543.6358567,-16.83037946,250.8990046
1.278,-35.02517056,899.2207581,250.712823,241.9439032,594.5046656,852.0863626,542.898552,-17.27740094,250.8990046
1.28,-35.60622525,902.0370423,248.6342097,241.6758368,596.4270289,853.6509683,544.1505051,-17.61266705,253.6706111
1.282,-34.30983853,902.6852357,249.3051082,242.7710516,597.7903102,854.7238443,546.0948411,-15.64574811,255.2351863
1.284,-34.42165493,899.3549134,251.7186824,243.7544501,599.5561793,854.4556253,546.1397629,-14.25994489,256.6433894
1.286,-34.399194,895.6221253,254.6244441,244.2461493,599.0420192,854.5673806,545.1563645,-13.85760114,257.1127497
1.288,-37.0813229,897.1420228,250.8246394,245.1626532,599.4668238,854.9026773,545.4913254,-12.31530377,262.4324519
1.29,-41.05983853,897.3655335,247.0248347,246.1685126,602.4394801,853.6956765,543.6358567,-9.968379945,268.7133357
1.292,-43.16091275,895.9126527,245.4154597,245.8106024,605.1440699,853.4945047,538.8301926,-9.476680727,269.8532283
1.294,-41.88698697,896.0691468,247.2484675,246.0566962,605.3005641,855.0367715,534.9190598,-10.23662946,267.9756648
1.296,-40.59060025,896.3821351,246.28753,244.4248602,598.6843531,856.8025796,531.164177,-13.25408551,258.6996638
1.298,-40.05397915,895.0186097,244.2758113,243.5532782,597.0527613,858.0766275,535.8350754,-12.73998639,255.6822077
1.3,-39.87526822,892.9175355,243.0238582,244.6260321,597.7680934,858.0542581,544.9327317,-13.05291364,261.4489314
1.302,-37.39431118,896.2926576,244.4320613,245.2295477,598.1704371,859.1495034,550.0069504,-14.70696637,256.7327449
1.304,-34.86843228,898.1925599,246.5780574,247.0625555,599.5561793,861.6081826,552.6885911,-12.96349713,260.5548884
1.306,-36.76833462,895.2867982,246.6449519,246.5034735,599.0644801,860.9823587,552.9122239,-12.78472516,261.2030818
1.308,-39.54030728,892.6046693,246.5111629,247.4424383,597.7680934,858.6801126,550.5880051,-13.16466901,260.3090388
1.31,-42.0656979,891.0847718,246.3319636,246.4815008,596.5832789,856.467283,549.0450364,-13.701107,264.2653376
1.312,-41.61892056,890.4589173,247.0248347,244.6260321,596.2480738,853.874479,557.0030442,-17.07622907,259.5266902
1.314,-41.44020962,888.4025208,245.4603816,244.3579657,595.8010524,852.8239724,560.5118332,-15.22106549,252.8882624
1.316,-40.00954556,888.4918763,243.6054011,243.4414618,595.2422145,855.1932351,550.4532395,-10.99657819,253.8717829
1.318,-37.28249478,891.9788148,245.4154597,243.0166571,594.7282985,856.5566995,545.7598801,-16.13744733,259.8843562
1.32,-35.85183072,892.82818,245.0136043,240.0440008,590.9507106,857.003721,537.1768723,-15.53399274,253.1564509
1.322,-33.28151822,894.2810609,245.0355769,239.9321844,587.9109156,856.8025796,534.851677,-16.47277448,245.0874812
1.324,-34.53347134,894.1692445,244.9237605,241.6978094,590.8166774,857.2048929,533.7344895,-13.85760114,247.7473933
1.326,-36.65651822,894.3927552,245.0136043,242.7485907,590.7719996,859.0600869,535.9249192,-12.27062604,249.580157
1.328,-39.3391354,892.7835023,243.1805965,239.820368,588.3132594,857.450773,540.2169114,-16.2716026,247.5462214
1.33,-39.3391354,890.4364564,242.0404597,239.3062079,586.4804957,856.914335,544.4630051,-16.80804059,249.0661189
1.332,-38.89186978,890.3694398,242.5546199,239.9321844,587.8884547,856.7802102,546.1397629,-15.310482,252.1953913
1.334,-36.43337368,895.1751038,244.2533504,243.9780829,592.7387965,857.1378457,547.9053879,-13.25408551,257.3362605
1.336,-34.399194,888.4918763,245.7958308,246.414118,594.5718043,858.5683572,547.4581223,-12.73998639,259.1243464
1.338,-32.96852993,877.4724671,245.728448,244.9165594,592.1352809,859.4624307,544.9551926,-15.35515973,254.4976374
1.34,-32.43239712,885.9214417,246.1307918,243.9556219,591.2190211,858.4118936,541.289177,-17.9255943,248.9096247
1.342,-34.44411587,900.7853333,245.4154597,244.5815985,593.4541285,856.5119912,541.1778489,-17.74682233,250.5189997
1.344,-34.53347134,904.6298158,244.2982722,244.3130438,595.3987086,855.4614541,539.9034348,-19.08788678,250.8095271
1.346,-34.95778775,904.2722718,242.4428035,241.5415594,593.3200953,855.7296731,539.7247239,-19.75848004,250.8542048
1.348,-36.54470181,909.2566468,242.2865535,241.2954657,590.8835719,855.9532144,538.8975754,-19.73608014,249.4684626
1.35,-40.05397915,904.8534486,240.4760066,241.1616766,588.1120875,853.785093,535.5674973,-20.11608502,247.7250544
1.352,-41.97634243,894.4597718,237.9725886,240.9605047,585.4074977,852.1981179,535.1202317,-18.43969342,249.2449519
1.354,-41.01540493,889.1848695,238.2186824,241.1841376,585.5862086,853.0027749,538.7188645,-18.21618268,251.8377253
1.356,-38.48952603,888.4025208,239.69378,242.6367743,588.2685817,853.6509683,540.5967942,-15.57867047,255.2575251
1.358,-39.07058072,887.8436829,241.0126277,242.5249579,588.4026149,852.9357278,539.7696457,-14.48345563,256.6210505
1.36,-39.6516354,888.8048646,240.8334285,240.3345282,586.6145289,850.8793618,537.3106614,-16.20452496,254.2293269
1.362,-38.66823697,889.810724,240.3417293,239.5073797,584.5356715,850.5217263,538.0928879,-17.61266705,250.2731501
1.364,-36.74587368,890.6600892,240.5204402,238.9712469,586.8825953,851.2369973,541.0430832,-16.51745221,251.4800593
1.366,-37.774194,888.4695374,240.2079402,239.5967352,587.7097438,851.7734353,541.0880051,-16.13744733,252.6424128
1.368,-41.2610104,884.7368714,238.7997371,238.9932196,585.4299586,850.5217263,539.8809739,-16.31628034,253.7823054
1.37,-44.30104947,883.038141,237.2797175,238.6582587,583.9099391,847.0795572,536.8633957,-16.09276959,255.8387019
1.372,-43.89870572,883.7533509,238.6654597,241.0049383,587.1509059,848.8229959,536.9757004,-12.85174176,259.8620173
1.374,-42.04323697,884.803888,239.2914363,241.7427313,589.2073024,851.4605081,537.601677,-11.51067731,262.8794734
1.376,-40.47878384,893.6104066,237.1229793,242.0557196,590.6601832,852.5780923,540.7755051,-11.39892194,265.3382136
1.378,-41.1047604,906.3510072,233.6141902,245.3413641,596.4939235,853.4945047,550.6768723,-13.27642438,271.149615
1.38,-37.10378384,883.9992005,244.856866,246.7495672,599.1091578,850.3429239,557.695427,-18.28326032,272.6471736
1.382,-34.6672604,886.770807,246.44378,244.8721258,597.8796656,850.3876321,556.7569504,-20.04900739,259.8173396
1.384,-33.52761197,890.145929,250.4447566,243.5757391,597.3879664,851.5275552,546.8106614,-19.73608014,246.9650447
1.386,-36.09792447,887.7543275,247.8075496,244.2236883,598.885525,851.214628,537.9366379,-17.36681745,251.0330378
1.388,-37.30495572,891.4869935,246.622491,246.4815008,601.5454371,851.6393106,539.1436692,-15.39983746,258.8114802
1.39,-37.95290493,896.225641,248.1874324,248.8950751,602.1264918,852.2651651,540.6192551,-15.310482,262.6559626
1.392,-38.66823697,895.8232972,248.5448543,247.2412665,600.0032008,851.3040445,539.367302,-14.61754987,263.1700007
1.394,-37.97536587,895.3539369,248.6342097,246.5034735,600.0032008,851.1475808,539.0538254,-13.07531354,262.6336238
1.396,-36.54470181,895.4879701,248.4779597,247.2637274,600.7854274,851.7063577,538.2276536,-13.23174664,256.2857234
1.398,-35.62868618,891.7776429,246.3319636,246.4815008,595.9575465,852.9804361,533.6446457,-9.029598207,247.7697322
1.4,-33.7507565,889.9000794,245.3041316,243.8213446,590.3249781,850.3205545,538.4727707,-20.45135114,246.4510066
1.402,-32.61110806,891.755304,244.3427058,244.3130438,591.8000758,850.7452371,541.0215989,-21.56896588,245.2216365
1.404,-33.61696743,892.3140199,244.2089168,243.8662665,594.1247828,849.9182412,540.7305832,-19.93725202,246.2721736
1.406,-35.80739712,890.2129456,244.2982722,242.5698797,593.3423121,847.4148233,538.3839036,-20.00432965,246.540362
1.408,-37.617944,888.4695374,244.4769832,243.0840399,593.4316676,846.4984109,536.1260911,-20.3172569,249.222613
1.41,-39.27175259,890.6600892,244.2533504,243.2402899,594.4153102,845.3361184,533.6007004,-20.54076764,249.4237849
1.412,-39.227319,898.9302308,243.0018855,242.4356024,594.0351832,846.9007547,533.9581223,-19.31139752,248.9543025
1.414,-39.36110806,894.6386048,241.1464168,242.4580633,594.437527,845.1796548,533.8243332,-19.22204205,250.6978327
1.416,-39.04811978,886.0109193,241.0346004,243.1509344,595.868191,843.8832681,531.0518723,-20.11608502,253.3352839
1.418,-36.52272915,880.35589,241.9286433,242.3462469,593.4541285,845.8725564,525.5762864,-20.4066734,250.295489
1.42,-32.85671353,879.8641908,243.3368465,240.3120672,589.7214625,848.353605,520.5919114,-20.85369489,245.0651423
1.422,-31.62770962,882.3228089,244.2308894,239.7310126,590.4812281,850.0523355,519.6085129,-20.18316266,243.3887507
1.424,-31.9406979,877.3384339,244.1864558,237.8760321,590.6601832,849.0912149,525.5762864,-21.45721051,240.5501277
1.426,-30.91237759,871.3705384,247.360284,238.9263251,593.9458278,847.6607034,534.0255051,-23.08886334,242.1147029
1.428,-31.73952603,880.9594056,250.8246394,243.061579,598.527859,845.6043374,537.5342942,-23.51354596,247.8590876
1.43,-35.18142056,896.5161683,252.0316707,252.1138251,604.8310817,845.1796548,541.1553879,-17.7691612,258.9231745
1.432,-37.32741665,895.0186097,247.9637996,247.5986883,602.9536403,844.7326333,541.9151536,-18.61852643,261.7619197
1.434,-36.52272915,892.8951966,245.6166316,245.4307196,598.8186305,843.9950235,541.9600754,-18.05974957,257.246905
1.436,-34.80153775,889.7659242,245.7958308,244.8496649,597.3657496,845.0455606,541.445427,-17.54565045,258.5656306
1.438,-33.8625729,889.5424134,245.0804988,245.2744696,597.0974391,846.2301919,542.1612473,-17.03155133,257.8502986
1.44,-33.16970181,890.9506165,244.4545222,243.9780829,597.9245875,845.0231912,540.1495286,-19.95959088,250.2283503
1.442,-31.80642056,891.6211488,245.6390925,243.217829,597.3210719,843.3915384,538.0479661,-24.3629112,242.4276911
1.444,-31.51589322,892.6716859,245.6840144,244.0674383,597.3879664,844.08444,537.8253098,-23.17827985,244.2157771
1.446,-31.8288815,890.6376283,245.0355769,244.0674383,596.6728785,844.6432168,536.1036301,-21.9712486,244.5287654
1.448,-32.633569,887.1731507,244.6332332,242.3013251,597.8574488,842.832731,535.9024582,-23.80413434,244.7074763
1.45,-34.5110104,885.9661195,244.6556941,242.323786,594.6386988,840.6646096,535.2315598,-24.96642682,245.6239802
1.452,-35.22634243,885.9661195,244.6112605,242.5249579,590.8613551,841.581022,535.2989426,-23.31237409,248.2837702
1.454,-34.46608853,886.9049622,245.3485652,243.5308172,594.0576442,841.6480996,534.2930832,-20.3172569,251.3012263
1.456,-33.68386197,885.876764,246.8685847,243.061579,596.2705348,839.7258279,532.5948411,-19.73608014,251.0777156
1.458,-32.11940884,887.1508119,248.0306941,239.7759344,597.1421168,838.9211709,534.695427,-20.74193952,247.3003718
1.46,-29.59352993,890.6376283,248.4779597,240.5357001,599.1985133,839.1223428,542.742302,-22.12774274,245.6909968
1.462,-30.46511197,888.9388978,247.7177058,241.8320868,598.6621363,838.0047586,549.1573411,-26.39690778,246.0486628
1.464,-31.64968228,885.876764,245.594659,240.8037665,597.7680934,837.7812478,544.9776536,-25.74871442,247.8144099
1.466,-32.789819,884.3345277,246.0189754,241.5415594,599.5561793,839.1223428,537.3555832,-21.79247663,253.9834773
1.468,-34.06374478,884.8485658,245.8178035,243.6426337,600.6067164,836.864805,530.2696457,-19.98199079,256.6657283
1.47,-33.84060025,886.5696351,247.4052058,246.0791571,601.6794703,835.7472207,532.0352707,-18.17150495,256.4868952
1.472,-32.52175259,888.5142152,250.1991511,247.7998602,603.5571559,835.7248819,538.4278489,-16.2492027,258.3644587
1.474,-31.91823697,890.7494447,250.4672175,248.0010321,602.5066188,834.0261514,541.8253098,-17.12096784,259.6831843
1.476,-30.44313931,890.5482728,250.735284,246.7495672,602.8418238,834.7637613,542.4962082,-17.65740582,257.962115
1.478,-26.86647915,888.5813538,254.5126277,244.9165594,604.0488551,837.1106851,543.2335129,-17.43389508,255.8610408
1.48,-24.5422604,893.1410462,255.4740535,243.776911,606.7534449,837.9377115,543.2335129,-20.09374616,247.3003718
1.482,-22.0163815,900.2042787,256.1444636,243.5083563,609.1003688,838.3400247,542.1387864,-21.47954938,240.8629939
1.484,-22.32936978,901.4783265,255.6527644,244.6929266,609.055691,838.9658792,542.9210129,-18.8196983,243.9699275
1.486,-25.83864712,898.8184144,253.5516902,244.4248602,605.9487574,837.6694925,541.6690598,-17.27740094,246.0710017
1.488,-29.21364712,894.5492494,252.1210261,244.8496649,603.4231227,838.4070718,537.3555832,-10.43780133,244.930987
1.49,-30.66628384,892.7610413,253.5966121,245.4082587,602.2607692,836.3507364,542.9210129,-17.16564557,249.222613
1.492,-31.11354947,891.039972,253.059991,246.6377508,602.5066188,836.4177835,544.9551926,-17.32213971,250.4071833
1.494,-31.180444,892.1576478,252.0990535,245.698786,601.9031031,836.8424661,543.6143723,-16.60686871,249.6919734
1.496,-31.8288815,899.1760804,248.813409,242.2344305,597.9468043,836.9989297,540.7979661,-18.50677106,246.4285456
1.498,-32.83474087,909.0778138,241.9066707,239.0830633,592.291775,837.9153421,540.5743332,-19.37847516,245.3781306
1.5,-34.35427212,913.1235902,237.6596004,238.3677313,590.9953883,837.580076,538.7188645,-19.73608014,246.6073786
1.502,-30.86745572,886.770807,249.0814754,240.1782782,593.2082789,835.5684182,535.4327317,-21.05486676,247.1215388
1.504,-30.64431118,883.9992005,247.8744441,240.4014227,594.5718043,836.6636636,537.7354661,-18.55144879,249.1778132
1.506,-33.16970181,883.0604798,245.7064754,240.6699774,594.5940211,837.0883462,538.0264817,-18.59618756,248.7307917
1.508,-34.95778775,882.8816468,245.2367488,240.9605047,595.8235133,837.7365396,534.382927,-18.17150495,245.9591853
1.51,-35.78493618,881.0264222,247.2933894,244.089411,598.2373317,837.5130288,532.5723801,-15.35515973,249.0214411
1.512,-36.43337368,865.7825257,251.0038386,245.0283758,596.382107,836.0154397,532.2149582,-13.92467877,251.1671931
1.514,-37.59548306,863.9049622,249.66253,244.3579657,600.3830836,835.3672464,539.2774582,-15.310482,254.7658259
1.516,-34.06374478,884.8485658,250.8920222,243.933161,604.1828883,836.9542215,546.4747239,-16.60686871,258.4761531
1.518,-32.45436978,896.2033021,251.4061824,242.3906805,602.4172633,838.0270974,546.4522629,-17.25506207,256.1068904
1.52,-28.8781979,898.0137269,251.5399715,243.039118,600.4502223,839.9046609,546.2510911,-17.63506696,250.3401667
1.522,-25.92800259,895.2644593,252.7245418,245.4082587,602.0371363,842.9891946,546.429802,-14.34936139,252.0835749
1.524,-27.1570065,891.7105042,253.1942683,245.386286,605.479275,844.1514871,543.5469895,-12.76238629,255.1234919
1.526,-28.69948697,892.0234925,253.3505183,247.308161,605.2558863,844.5091226,539.4337082,-10.79540631,257.4704158
1.528,-30.97927212,891.4869935,254.5126277,247.9116766,604.8088649,842.9444864,536.4835129,-9.789546938,259.0349909
1.53,-31.91823697,891.3306214,255.2279597,247.1963446,606.2617457,841.2680948,536.5284348,-9.00725934,257.8502986
1.532,-31.49343228,890.1906068,256.3680965,248.045954,607.0217555,840.4858072,547.1231614,-8.381404848,257.8502986
1.534,-31.35915493,890.2577454,256.0101863,246.257868,606.5075953,838.6976602,556.9356614,-11.62243268,257.1350886
1.536,-29.59352993,890.0565736,256.5692683,246.257868,606.5969508,839.3458535,555.5723801,-11.68944928,258.9231745
1.538,-28.58767056,891.3529603,254.8705379,245.8999579,607.3344996,840.686979,553.3370286,-10.66131207,260.1078669
1.54,-28.7219479,891.1741273,253.9096004,246.1904852,606.5075953,841.6033914,549.3809739,-10.84008405,258.7220027
1.542,-28.38649868,889.5647523,254.4012996,247.3306219,605.0993922,842.7880227,547.7491379,-11.08599469,257.8950984
1.544,-28.0735104,888.9613587,253.2387019,245.0952704,604.607693,840.5528543,552.2862473,-13.11999127,257.0457331
1.546,-29.32546353,888.2460267,254.2221004,245.1177313,603.0876735,837.9600503,554.8126145,-14.99755475,255.5257136
1.548,-29.54860806,887.5084779,255.1386043,247.6660712,604.1382106,837.5353677,548.6426926,-13.11999127,258.319781
1.55,-30.30886197,886.0109193,254.825616,247.5317938,604.3618434,837.311857,539.836052,-13.45525739,260.4878718
1.552,-32.27565884,884.8485658,254.669366,244.6260321,605.7029078,835.9931009,534.5616379,-13.41057965,263.2818171
1.554,-29.70534634,885.876764,255.563409,244.0674383,607.08865,836.8871743,537.5342942,-12.9188194,264.0641658
1.556,-25.92800259,888.2460267,257.0834285,244.648493,608.4521754,838.9211709,539.211052,-13.29882428,258.6326472
1.558,-24.96657681,888.3578431,258.3798152,244.1118719,608.1616481,840.1952188,538.8526536,-14.19286725,252.8882624
1.56,-25.01149868,886.23443,257.7089168,243.2852118,607.5356715,840.1281717,537.5342942,-13.7905235,255.5481745
1.562,-24.51979947,886.94964,257.6869441,243.217829,606.9546168,840.9104898,535.8350754,-8.269649477,255.0116755
1.564,-23.98317837,888.2683656,258.2679988,243.9107001,606.7756617,841.4692666,537.1768723,-6.593257875,253.2459284
1.566,-25.21267056,888.0671937,258.4691707,243.9780829,608.4968531,840.9998758,542.742302,-14.23754498,256.3304011
1.568,-27.24685025,894.1245667,257.7313777,244.2012274,607.2898219,841.7151468,542.1837082,-12.33770368,258.9679743
1.57,-30.4875729,899.6901185,255.563409,243.2852118,602.6853297,839.6364419,539.523552,-13.07531354,257.5597712
1.572,-31.53835415,891.7105042,254.7587215,241.4966376,600.1819117,839.5693643,538.7637864,-12.47179791,254.385821
1.574,-30.80056118,883.4180238,254.0433894,243.3071844,601.746609,839.2788064,538.3165207,-10.50481793,256.8445613
1.576,-29.72780728,877.3384339,253.1049129,243.8438055,602.9089625,837.3341958,538.3614426,-9.163753481,260.5325495
1.578,-29.16872525,876.3325746,252.344659,242.2793524,601.5454371,837.6918313,539.5010911,-7.979061098,258.9679743
1.58,-27.73854947,878.1206605,252.2108699,243.4639227,602.104275,839.3905618,538.7637864,-6.03448102,259.9737116
1.582,-26.33034634,881.1605775,252.7694636,242.8604071,602.6631129,838.8541238,539.2325364,-9.275508852,252.8212458
1.584,-26.41970181,882.0546204,253.6185847,241.0049383,604.0041774,836.238981,538.0928879,-11.39892194,252.1505915
1.586,-28.0735104,881.1157777,254.8929988,241.273493,605.7029078,834.8755166,535.4776536,-10.10247418,260.8455378
1.588,-27.1570065,883.0828187,255.6976863,241.9439032,605.1440699,836.1719033,536.3946457,-9.499019594,260.6890437
1.59,-27.84987759,881.8087708,254.669366,241.7202704,601.4782985,835.3896158,536.4171067,-10.57189557,253.6929499
1.592,-28.63259243,877.7407777,254.6024715,242.7710516,598.4831813,832.5285928,536.0811692,-13.36584088,248.0379206
1.594,-27.805444,882.8146302,253.03753,243.8438055,598.013943,832.7744424,536.9083176,-16.15984723,244.9086482
1.596,-27.1125729,886.9049622,251.4730769,241.1616766,597.7234156,834.3390786,536.8858567,-18.14910504,244.0592829
1.598,-25.90554165,886.0779359,250.6014949,240.8931219,597.0974391,836.7530496,538.7637864,-17.54565045,244.774615
1.6,-25.2351315,882.3674867,249.0140925,241.452204,596.6728785,838.0494668,541.0430832,-14.90813825,246.5180232
1.602,-25.19020962,871.1469056,250.2435847,243.7095282,599.9585231,838.6306131,541.2003098,-14.10345075,250.6754939
1.604,-25.45827603,862.0273988,251.271905,246.1460516,601.8359645,839.4799783,539.8585129,-11.66711041,255.0563533
1.606,-27.24685025,871.7727601,250.9813777,244.7378485,600.4502223,837.043638,537.8028489,-12.06945416,253.5364558
1.608,-29.05690884,884.6697328,249.8637019,243.4190008,599.0420192,835.0096109,536.0811692,-13.65642926,247.7697322
1.61,-32.633569,883.7756898,247.1366511,242.5024969,595.5998805,833.0426614,535.1202317,-14.28228375,247.7473933
1.612,-34.30983853,883.038141,247.1591121,242.1895087,594.3706324,831.9250772,535.2315598,-15.39983746,248.2390925
1.614,-35.2038815,880.4005677,246.9804011,243.195368,594.8176539,831.9250772,532.929802,-13.90227887,247.7697322
1.616,-34.22048306,879.9312074,246.9579402,243.3745672,594.795193,833.6685159,533.7794114,-11.08599469,248.4402644
1.618,-32.76735806,879.6853578,247.8295222,245.4082587,596.9187281,833.377958,536.4835129,-11.3318443,251.0777156
1.62,-28.67702603,884.7815492,251.5399715,248.5376532,603.4900172,833.0873697,540.2608567,-12.1141319,254.9893366
1.622,-28.49831509,886.6367738,252.8138972,248.9399969,607.8711207,830.8522012,547.9278489,-14.14818952,258.5656306
1.624,-30.59938931,883.1274964,251.1600886,246.9282782,608.5415309,827.7229287,545.804802,-14.19286725,259.213824
1.626,-33.81813931,880.713556,249.2152644,247.0400946,608.5639918,828.5052469,541.6026536,-12.65056989,261.4937312
1.628,-35.42751431,880.1323792,249.4164363,245.7661688,605.0547145,830.6957376,539.211052,-9.253108949,260.6890437
1.63,-34.53347134,878.6571595,250.2660457,243.3521063,600.6960719,834.5625894,545.9835129,-7.152095766,258.3421199
1.632,-33.97438931,878.388971,249.5282527,242.4131415,598.7514918,838.3400247,550.6544114,-7.755550356,256.7327449
1.634,-32.83474087,882.7251527,250.9364558,244.804743,603.6911891,839.1223428,553.2921067,-7.1967735,258.0067927
1.636,-30.88991665,887.0166566,253.1493465,246.8838446,607.2676051,839.2564676,554.7452317,-5.319210023,261.1807429
1.638,-29.43727993,887.6873109,254.2221004,246.2129462,607.2451442,838.9211709,553.8282395,-4.894527406,262.4994685
1.64,-28.31960415,886.8154847,254.0658504,245.1401922,605.9040797,837.5130288,551.1915207,-6.950923891,261.6949031
1.642,-26.26296353,886.5249574,255.0717097,246.7720282,605.8147242,837.7812478,551.4590989,-6.883846254,261.4937312
1.644,-24.40798306,886.94964,254.7811824,247.4648993,606.7087672,838.4070718,552.1075364,-6.257991762,258.4314753
1.646,-25.68190884,885.3850648,253.3280574,247.3530829,603.0654567,838.6976602,552.5098801,-4.536922426,260.0408503
1.648,-26.93386197,883.3510072,254.669366,247.1069891,603.1548121,836.7977578,550.3868332,-3.888729066,264.1088435
1.65,-30.66628384,879.0818421,254.110284,245.6094305,602.7971461,832.1262491,545.3575364,-6.928523988,261.3595759
1.652,-32.76735806,880.0877015,254.3563777,245.0059149,602.104275,831.5898111,545.0889817,-5.967403383,261.2030818
1.654,-29.88405728,893.8787171,255.0717097,246.1685126,602.7524684,834.5178811,546.2960129,-4.916927309,262.2759577
1.656,-28.20778775,894.5715882,254.8036433,245.1851141,603.7583278,834.987272,546.9669114,-4.827510805,262.588946
1.658,-29.12429165,884.9380433,252.7919246,244.0225165,602.6853297,834.4955423,544.1055832,-4.536922426,262.0971247
1.66,-28.6101315,878.1206605,251.7636043,243.9780829,601.8137477,835.8589761,536.1260911,1.945072203,258.140948
1.662,-26.97829556,875.7960755,252.7025691,245.6768133,604.6299098,836.1719033,538.4727707,-5.341609926,264.6228816
1.664,-29.03493618,874.1196839,251.9647761,244.5815985,604.4065211,834.987272,539.367302,-5.207454652,265.6287409
1.666,-30.95681118,879.9758851,250.5121394,245.2070868,604.8088649,834.6520059,540.3731614,-1.00536725,267.1262995
1.668,-34.30983853,898.1032044,244.700616,246.6602118,607.3122828,835.8142984,544.6866379,1.118045836,272.75899
1.67,-31.73952603,878.746515,253.6859675,245.7437079,605.479275,832.3274209,544.0831223,-3.352291078,264.7123591
1.672,-31.22536587,878.7018372,255.407159,246.3023016,606.4404567,833.199125,545.6924973,-3.799312563,265.0699031
1.674,-30.42067837,881.8757874,254.9598933,245.0508368,604.8310817,834.9649331,546.8106614,-3.41930768,265.0699031
1.676,-27.04567837,886.1672913,256.7035457,245.0732977,604.9875758,836.1048562,549.8721848,-3.866390199,261.337237
1.678,-24.11745572,890.8164613,258.7147761,246.436579,610.3967555,836.238981,549.4034348,-4.604000063,259.7502009
1.68,-22.35183072,892.0458314,259.4301082,245.8330633,613.6824,836.6860025,548.4639817,-5.185115785,257.7609431
1.682,-23.40212368,889.3189027,258.5360652,244.6929266,615.2024195,835.1660745,547.2794114,-5.78863141,259.3478572
1.684,-23.06667447,890.4141175,258.9833308,245.9448797,616.9680445,834.5625894,545.9161301,-5.967403383,260.5772273
1.686,-24.67604947,890.9282777,259.0502254,246.9282782,617.0351832,833.6685159,547.4805832,-6.481502504,262.3877741
1.688,-26.68776822,887.7096497,259.47503,247.4424383,616.9905055,832.4391763,551.3702317,-4.492244691,267.1262995
1.69,-29.19118618,884.0662171,260.4359675,248.7163641,617.7280543,831.0980813,548.6426926,-2.122920961,268.0874812
1.692,-29.07936978,885.9661195,262.0902644,248.045954,618.7116969,830.4498575,546.7208176,-2.793453188,260.5995661
1.694,-28.05104947,887.9108216,263.4535457,246.8838446,617.0129664,829.7345865,547.2569504,-3.17345807,258.140948
1.696,-28.69948697,888.9836976,258.5360652,247.3306219,617.5940211,830.1368997,550.5655442,-1.340633363,263.9300105
1.698,-26.44216275,890.7494447,261.5087215,248.2471258,619.5610621,831.2321756,552.7335129,0.112247496,267.8639704
1.7,-24.40798306,884.2897279,263.9008113,248.1128485,618.152859,830.6957376,552.1973801,-0.066585512,268.5345027
1.702,-23.55837368,873.8514954,262.6263972,246.7271063,617.2363551,830.4722268,549.3809739,-3.128780336,262.8571345
1.704,-26.17360806,871.6610658,260.525323,245.0059149,616.3423121,828.7063882,544.9776536,-4.179317445,261.4265925
1.706,-28.34206509,884.3568665,260.369073,243.8662665,613.4812281,826.4935891,540.6192551,-4.134578676,259.549029
1.708,-28.83376431,894.5492494,261.4418269,245.3189032,612.2519801,825.9347818,538.4952317,-4.805110902,251.1448542
1.71,-30.75563931,892.2470033,259.9891902,245.8330633,611.0224879,823.4984414,540.6407395,-4.246334047,249.8708064
1.712,-29.63845181,889.8330628,259.8998347,246.4590399,610.5754664,825.6218545,553.4483567,-3.508724184,255.5705134
1.714,-26.91140103,890.8164613,261.3300105,249.0518133,612.9448512,829.0640237,568.7149582,-1.944087953,260.1525447
1.716,-26.66530728,890.9282777,261.0394832,248.5601141,612.430691,831.7015664,568.2676926,0.000492125,259.7502009
1.718,-26.37477993,890.1012513,260.7938777,249.0962469,612.7436793,830.9416177,559.4385911,-0.357112856,260.0855281
1.72,-24.92214322,891.755304,262.2465144,249.0962469,615.0681422,829.3099038,551.8174973,-0.871211977,263.1476618
1.722,-26.37477993,892.4928529,261.7997371,249.7671454,617.3928492,827.4547097,548.7100754,-1.854732484,265.9640681
1.724,-26.196069,892.291681,261.3973933,250.1245672,618.0410426,828.5052469,549.8721848,-2.167659731,265.7405574
1.726,-27.46999478,891.1517884,261.1737605,249.9458563,617.9292262,830.4498575,550.0733567,-0.446529359,265.7852351
1.728,-30.10769009,888.9165589,261.2855769,250.9067938,616.6328395,829.0640237,548.6651536,1.118045836,269.4285456
1.73,-33.66140103,885.7426087,260.5927058,252.5830633,615.828152,825.9571512,547.3467942,1.475711852,273.3625056
1.732,-34.57790493,884.1556947,261.263116,252.2705633,618.1975367,823.9454934,546.0274582,2.079227477,275.1729304
1.734,-33.7507565,886.1002747,262.4476863,251.1304266,618.8904078,823.6325662,541.5128098,0.849857359,271.149615
1.736,-30.55446743,889.1848695,263.7889949,250.6611883,619.5610621,825.174833,539.0313645,-0.290096254,266.7686335
1.738,-27.06765103,890.9952943,263.4760066,249.3867743,620.27615,825.8900735,544.195427,-1.474727602,267.573321
1.74,-24.74343228,890.7494447,264.2357722,250.8843329,623.7407496,826.7618081,548.9337082,-1.564144106,271.8201472
1.742,-22.35183072,894.079889,267.6107722,252.9185126,624.6794703,828.572294,551.0567551,0.224002867,272.1331355
1.744,-21.23415493,905.5686585,266.8734675,252.5161688,619.7844508,830.2710244,553.2921067,2.235660582,269.5179011
1.746,-22.10573697,909.9943177,265.2191707,250.5044501,616.0293238,830.2039773,553.8956223,2.660343199,268.9591853
1.748,-23.13405728,906.4627015,265.9794246,250.9961493,615.9177516,831.1204202,550.2520676,5.476688414,268.2215144
1.75,-25.25710415,899.958307,265.353448,251.8901922,614.9787867,829.8463418,546.3633957,10.0587807,268.4450251
1.752,-23.51394009,897.9243714,268.0355769,251.4878485,616.1636012,826.6947305,551.5714036,-0.334773988,270.9261042
1.754,-21.70339322,897.7902162,269.8685847,251.7339422,616.1186793,828.0581949,550.6104661,-0.848873109,268.9145075
1.756,-21.3235104,898.6619203,268.3710261,251.0410712,615.4929469,828.1029031,547.1905442,-3.084041566,265.2935359
1.758,-21.27858853,901.8358704,265.9120418,249.1636297,613.4143336,827.9688089,545.2012864,-5.207454652,258.9008357
1.76,-22.46315884,901.925348,264.0570613,248.9399969,612.6990016,826.5829751,545.961052,-5.185115785,260.5325495
1.762,-21.30104947,901.4111878,263.744073,248.7837469,612.5871852,826.784147,546.0274582,-4.358089418,263.0583064
1.764,-21.30104947,900.9865052,264.8842097,247.8223212,613.4590113,827.4770486,546.5421067,-2.637020082,263.9523493
1.766,-22.70925259,900.0254456,264.6605769,245.8779852,612.3413356,826.9406106,545.8712082,-0.625362367,263.8183161
1.768,-25.19020962,899.42193,265.197198,245.9673407,610.665066,825.9571512,545.8262864,-0.6030235,262.2536189
1.77,-27.06765103,897.9243714,263.8558894,246.2129462,607.3791774,824.7054422,544.9776536,-1.809993715,261.2702204
1.772,-25.36892056,898.9749085,263.2748347,246.9507391,606.8652613,825.7559793,546.3184739,-0.379512758,263.3711726
1.774,-21.54714322,901.6570374,264.9061824,249.9902899,608.7873805,828.3264138,546.8995286,-0.960628481,264.2205378
1.776,-21.211694,900.7629945,265.1298152,249.6777899,610.8884547,827.5664651,547.1007004,-0.178340883,266.1429011
1.778,-21.43532681,901.388849,266.06878,251.242243,614.0847438,827.0076577,548.7549973,-0.446529359,267.6851374
1.78,-20.20583462,901.5006654,266.962823,252.7842352,615.9624293,825.6665628,549.4034348,-3.687557191,266.5451228
1.782,-19.13308072,900.3606507,266.7616511,251.4434149,616.0293238,823.7219522,544.5977707,-3.687557191,266.0757624
1.784,-20.22829556,898.706598,266.7841121,251.8901922,614.9787867,821.6656167,539.3897629,-2.681697816,265.4052302
1.786,-19.46804165,899.9136292,268.9296199,253.7007391,615.9399684,821.4644449,537.1993332,-0.737117738,265.6287409
1.788,-20.65261197,900.0477845,269.4213191,253.2315008,615.4482692,819.0951516,534.5167161,-2.36877057,263.7288386
1.79,-24.13991665,895.8456361,267.4320613,251.9575751,611.7378199,819.3410318,533.4659348,-3.598140688,260.9348933
1.792,-24.45241665,892.7387025,266.7841121,251.6445868,611.178982,821.0173929,535.0977707,-3.352291078,261.5830866
1.794,-23.02224087,895.5774476,268.2142879,252.5610907,613.704861,820.7715432,536.2598801,-2.637020082,267.3498103
1.796,-21.81520962,897.2538392,270.4945613,254.3491766,613.7942164,820.1233194,536.4385911,-1.988826723,270.9261042
1.798,-21.03298306,896.8961732,269.8461238,251.4658758,610.6872828,818.4245889,532.9073411,-4.559261293,265.4499079
1.8,-18.82009243,898.6842591,271.209405,248.2915594,612.0283473,818.40225,530.9405442,-6.414485902,257.5374324
1.802,-18.21657681,900.3606507,271.1425105,246.0342352,613.1907008,818.4916665,531.320427,-7.397945375,253.2011286
1.804,-17.65749478,900.4501283,270.0472957,247.3755438,615.0906031,820.3021524,536.9307786,-5.989803285,258.6549861
1.806,-17.992944,901.7018372,271.7235652,247.0400946,616.90115,820.4139077,538.5401536,-6.392086,259.6831843
1.808,-19.446069,902.2605531,272.6400691,246.9951727,617.3703883,820.7491739,541.6251145,-5.095699281,260.1525447
1.81,-22.32936978,889.967096,269.3095027,246.0342352,611.1120875,819.9668557,542.5186692,-3.441707582,260.8230769
1.812,-24.00563931,870.2081849,265.5770808,246.3023016,606.4629176,818.6257608,541.7139817,-2.77111432,263.482989
1.814,-22.68679165,869.4258363,266.8285457,247.2188055,606.4851344,816.9046914,538.5401536,-2.569942445,266.5675837
1.816,-21.79274868,887.7766663,268.3261043,245.8555243,609.8825953,816.7482278,537.9815598,-3.642818422,268.2215144
1.818,-21.56911587,896.6726624,267.5214168,243.7319891,610.9331324,816.0776651,542.5186692,-7.442623109,263.661822
1.82,-19.42360806,898.4830872,268.3261043,245.0283758,613.5930445,817.6199319,550.3419114,-8.046138734,262.9912898
1.822,-19.57985806,895.4432923,268.8402644,245.4082587,612.9001735,818.4692971,544.8428879,-5.878047914,265.2263972
1.824,-20.80935025,893.9233949,267.5438777,246.4590399,611.8496363,818.5587137,535.9698411,-4.536922426,266.0757624
1.826,-23.13405728,893.3868958,263.1180965,247.6660712,611.0224879,818.3799112,529.4874192,-3.285213441,267.6179988
1.828,-23.11159634,901.8135316,263.1854793,247.5767157,609.592068,819.0504434,529.3760911,-3.933406801,261.873614
1.83,-24.47487759,905.7028138,262.4926082,247.0400946,606.4629176,817.597593,532.9971848,-5.051021547,254.8998591
1.832,-26.39724087,897.7008607,263.0961238,248.2695868,607.7593043,816.3458841,538.9424973,-4.246334047,257.0232722
1.834,-24.8547604,891.218805,265.5770808,248.3364813,609.4580348,816.3458841,541.8253098,-4.916927309,258.0067927
1.836,-22.88796353,887.7543275,268.1473933,249.4541571,610.1062281,816.4576394,540.820427,-5.63213727,259.4373347
1.838,-21.4797604,887.4190003,267.3202449,250.3257391,611.1567653,816.6141031,541.2227707,-4.62633893,262.9241511
1.84,-18.73073697,890.9282777,268.8402644,250.5044501,615.0906031,817.9999063,541.3340989,-3.464046449,264.2205378
1.842,-17.97048306,892.8058412,270.5389949,250.6836493,619.8738063,818.0222757,541.1778489,-3.374629945,264.4665095
1.844,-17.85866665,894.2139222,270.8295222,249.4985907,621.1479762,817.8434427,541.2667161,-3.061702699,264.9805476
1.846,-20.00466275,894.258722,269.0189754,247.8892157,614.1518824,817.2846658,541.9600754,-2.838191957,263.9970271
1.848,-24.67604947,893.9457337,267.6556941,248.0903876,613.9507106,813.5742776,539.9034348,-4.492244691,262.052447
1.85,-27.35817837,892.1799867,266.2924129,248.5601141,613.6155055,811.5179117,538.5626145,-5.296871156,262.8794734
1.852,-25.68190884,892.3811585,266.091241,247.3755438,611.2236598,813.4848611,540.9991379,-4.201656313,263.5946833
1.854,-24.51979947,893.0963685,267.2533504,247.867243,607.5356715,815.9882486,541.4014817,-1.899410219,264.3100154
1.856,-24.22927212,891.9341371,267.1864558,249.8789618,606.6416285,818.6257608,536.2598801,5.364933043,265.3382136
1.858,-24.13991665,889.9447572,266.1805965,250.4600165,609.0779078,818.0222757,533.5782395,6.191898375,268.3333308
1.86,-23.06667447,889.4083802,266.2924129,250.2588446,610.486111,815.0047891,540.0596848,-3.665218324,270.2108943
1.862,-23.11159634,886.8378236,264.0795222,249.2080633,607.5581324,813.7083719,541.4903489,-5.453365297,265.5393855
1.864,-24.05056118,882.6134583,263.3417293,247.7778876,605.5239528,812.8142984,538.7413254,-7.1967735,260.8902156
1.866,-24.34108853,882.5016419,264.9286433,247.0400946,605.1665309,811.1155679,537.5342942,-10.10247418,254.6093318
1.868,-24.05056118,884.2897279,267.141534,248.2246649,606.9321559,811.0708902,540.6192551,-8.426143617,254.7211482
1.87,-25.61501431,884.446222,266.2030574,250.4600165,606.7756617,811.4061563,544.1280442,-4.62633893,259.727862
1.872,-26.12917447,885.2509095,264.4369441,248.6719305,604.2947047,812.881376,542.0489426,-3.709896059,260.2643611
1.874,-26.82204556,885.5414369,263.6097957,246.8613837,602.0149195,814.2001321,541.1778489,-2.637020082,260.3313777
1.876,-24.96657681,886.7931458,264.4369441,247.4868719,606.6640895,813.7977884,541.5352707,-1.631221742,264.2653376
1.878,-22.35183072,887.4636781,267.4545222,248.202204,612.4978297,815.0494973,543.5694504,0.179325133,270.1885554
1.88,-21.65847134,888.201349,267.7450496,249.9683172,614.7776149,815.205961,542.2950364,1.632144957,275.5082575
1.882,-23.49147915,885.2509095,264.9735652,251.4878485,613.4143336,814.8706643,541.2667161,1.296878844,276.849322
1.884,-22.61989712,883.1051576,264.459405,251.3315985,609.1675074,816.4353006,540.4395676,1.408634215,271.0379206
1.886,-22.21755337,884.9603822,264.9511043,248.8281805,604.6523707,815.4965188,540.1046067,0.045169859,260.9348933
1.888,-23.51394009,885.3850648,266.06878,246.9732001,603.6689723,813.1272256,541.0215989,0.738101988,259.1914851
1.89,-25.99489712,882.8146302,266.5155574,247.7778876,603.6018336,813.7530801,543.3907395,3.01794818,262.2759577
1.892,-26.68776822,881.6522767,265.197198,248.5151922,604.3171656,814.1777627,543.2559739,4.806095152,264.2205378
1.894,-26.53151822,882.5909974,263.9901668,246.3696844,603.8030055,814.1554239,543.3233567,4.135562926,264.9358699
1.896,-23.91628384,884.5580384,265.2865535,247.4648993,604.7864039,816.3011758,546.0948411,4.22497943,264.913531
1.898,-21.92702603,883.7533509,264.9511043,248.3589422,606.4851344,814.8483255,545.8487473,2.861515074,264.6005427
1.9,-21.56911587,883.2616517,266.4262019,247.9790594,609.0779078,812.9037149,543.1895676,1.96741107,266.7239558
1.902,-23.29030728,878.7241761,265.9345027,246.1011297,608.8991969,810.9814737,541.6690598,1.453372984,267.9533259
1.904,-24.34108853,877.0031068,264.3700496,244.1118719,607.982693,809.6180093,539.523552,0.469852477,265.5393855
1.906,-23.13405728,877.4277894,264.3925105,242.7710516,608.2285426,809.3497903,537.757927,-0.111263246,262.9689509
1.908,-21.77028775,881.3394105,267.1639949,244.6035712,609.2121852,808.6792276,537.5118332,0.313419371,265.2710749
1.91,-23.35720181,883.4403626,269.2650691,244.0225165,610.1062281,807.986326,537.4893723,0.402835875,267.573321
1.912,-24.8547604,883.9545228,269.1981746,245.2070868,609.1225856,809.3721597,539.5460129,1.699222594,267.6627986
1.914,-24.00563931,884.267389,266.985284,245.4082587,606.6194117,810.0874002,539.9708176,1.945072203,263.1700007
1.916,-21.68093228,884.3345277,266.5604793,245.2070868,603.6911891,809.3274514,538.3839036,-1.00536725,260.8902156
1.918,-19.19997525,882.7698304,265.0629207,244.0225165,600.5620387,810.1321084,538.9874192,-1.854732484,259.6385066
1.92,-21.01052212,880.4675843,264.9286433,243.7988837,605.7700465,811.9202554,541.0655442,-0.871211977,263.7064997
1.922,-22.68679165,879.3276917,265.6439754,245.9673407,610.3967555,812.076719,540.2608567,-0.893611879,265.5840632
1.924,-23.02224087,878.6794984,266.1805965,245.1626532,611.2907985,811.6520364,538.2051926,-3.17345807,262.052447
1.926,-24.49733853,878.0089662,265.7108699,244.3579657,608.6086695,811.9873025,537.3331223,-3.374629945,263.3488337
1.928,-27.58181118,875.9525697,263.1630183,242.9048407,605.6582301,810.8026712,536.5733567,-1.854732484,269.4062068
1.93,-28.49831509,876.1760804,262.6263972,239.9546454,602.3276637,810.4897439,536.3497239,-1.698238344,267.8639704
1.932,-24.51979947,881.1605775,263.6322566,238.9038641,598.371609,814.5353982,537.4893723,-3.620479555,252.3965632
1.934,-21.79274868,883.4851624,265.3085261,240.0215399,598.7514918,816.8152749,538.8526536,-4.916927309,248.9767634
1.936,-20.16091275,883.373346,264.8392879,240.6475165,598.5949977,814.8930337,537.0870286,-7.263851137,249.0884577
1.938,-19.04372525,881.4734437,263.5204402,239.4404852,597.5222438,811.629667,533.3096848,-9.543697328,248.7307917
1.94,-17.47878384,877.9419496,262.157159,232.6680243,595.2646754,812.0320108,531.8340989,-12.36004254,245.6909968
1.942,-18.7531979,878.0983216,264.638116,238.6357977,599.2209742,813.2613504,534.9639817,-8.314388246,251.0777156
1.944,-18.41774868,880.8029115,267.1864558,242.4580633,603.5346949,813.9319131,537.4005051,-5.989803285,255.2575251
1.946,-18.84255337,879.4170472,266.985284,242.4580633,605.5239528,814.3342263,537.3780442,-5.185115785,256.9115779
1.948,-21.45729947,878.388971,265.1747371,240.8486883,602.0149195,815.2282998,537.4229661,-3.262874574,255.9728572
1.95,-20.96560025,879.7300355,265.0629207,240.6250555,597.2539332,815.3177163,536.7969895,-3.218135805,253.3799616
1.952,-17.54616665,882.1439759,267.2308894,240.9155829,595.7116969,815.8541543,536.8194504,-2.569942445,252.5305964
1.954,-12.33815884,884.6027162,269.8685847,241.1616766,595.868191,817.7987649,536.304802,-1.60882184,251.2565486
1.956,-7.688744778,886.2567689,271.5004207,240.7593329,595.2868922,820.8162515,536.6397629,-1.519405336,247.1885554
1.958,-7.197045559,886.0332581,271.7235652,238.7700751,596.1587184,820.9503457,535.6124192,-3.799312563,242.7852351
1.96,-9.343041653,882.0546204,268.7059871,237.8311102,597.656277,817.4634683,531.9913254,-5.609798402,245.7356745
1.962,-11.399194,878.8806703,266.5829402,238.7700751,597.4326442,816.3458841,530.0909348,-6.727413148,247.0097224
1.964,-12.71804165,877.2936341,266.6947566,239.3286688,596.6728785,816.8823221,530.2257004,-7.152095766,244.2157771
1.966,-14.75222134,877.2489564,265.532159,238.6582587,596.4492457,816.1000039,527.8331223,-7.085018129,243.5675837
1.968,-15.17653775,876.1090638,265.1298152,238.2559149,595.3764918,817.150541,529.3087082,-7.152095766,244.6181208
1.97,-14.48366665,867.2800843,264.9061824,237.7417547,590.0119899,819.7880533,532.2149582,-7.308528871,239.9689509
1.972,-13.03102993,859.2781312,266.6049129,237.7192938,586.6816676,822.1349771,535.8135911,-5.475704164,240.1477839
1.974,-10.8625729,869.1353089,268.3485652,236.8701727,584.4240992,823.2302224,535.9698411,-6.481502504,237.4431941
1.976,-11.242944,878.5453431,267.2308894,236.1773016,585.5862086,824.5489785,534.4717942,-6.392086,237.5550105
1.978,-10.0578854,877.8971497,265.9569636,237.6968329,586.7038844,826.8288553,534.539177,-5.319210023,240.5724665
1.98,-5.162865872,882.5909974,267.7675105,239.1274969,587.1509059,827.8346841,533.1085129,-5.095699281,238.8737361
1.982,-2.548119778,882.4346253,267.7450496,238.3901922,586.1450465,826.2924173,528.257927,-8.224971742,236.0349909
1.984,-3.956322903,877.2489564,266.091241,236.6465399,583.2842067,826.247709,524.9278489,-8.627315492,233.3305232
1.986,-7.308861965,874.0973451,263.3417293,235.7075751,580.4678004,825.6665628,523.8546067,-8.046138734,230.9834773
1.988,-8.895776028,874.2315003,262.5819636,236.6909735,577.8972438,824.0572488,523.3858567,-8.381404848,229.8658015
1.99,-9.857201809,871.9069154,261.4418269,236.624079,575.7068141,824.727781,525.5089036,-6.928523988,230.0222956
1.992,-9.499291653,870.1411683,261.5087215,235.9761297,576.0420192,825.8900735,530.0909348,-5.676876039,233.0398738
1.994,-6.437279934,872.4657533,262.8949519,236.3560126,577.6738551,827.4547097,532.929802,-6.615657777,236.7726618
1.996,-5.364037747,873.3821351,263.3641902,236.4229071,580.2666285,830.2263162,534.0030442,-7.889705629,238.0467097
1.998,-4.53737759,868.6659486,263.4760066,237.5855047,583.3064235,833.7802713,540.0821457,-5.38628766,240.9301325
2,-3.755151028,867.5482728,262.9618465,236.8701727,583.5522731,835.3225381,541.3790207,-5.475704164,240.3712947
2.002,-2.771264309,870.4763734,265.7782527,237.6968329,587.5310328,835.9931009,539.836052,-5.252193422,240.5724665
2.004,-2.212670559,873.7174622,269.0414363,238.7026922,591.5766871,833.5344217,536.3497239,-5.922725648,240.9076716
2.006,-3.531518215,873.2033021,269.6005183,240.1333563,591.397732,832.4168069,535.0753098,-4.536922426,241.7570368
2.008,-5.923119778,869.2694642,267.3651668,241.2510321,587.1509059,829.8463418,532.8399582,-5.565120668,240.5277888
2.01,-6.369897122,867.6600892,264.9735652,240.0889227,583.5522731,830.2933633,532.8848801,-4.939266176,240.3042781
2.012,-6.839623684,867.1907288,263.4086238,238.054743,581.4511988,832.7073953,533.9356614,-3.531063051,240.9076716
2.014,-5.766381497,875.5502259,260.6596004,237.2944891,580.4453395,835.7025125,537.2432786,-4.22399518,236.8843562
2.016,-5.699486965,877.8971497,258.021905,235.1265204,581.6301539,835.3225381,535.8135911,-7.465023012,232.1234919
2.018,-5.185326809,869.0906312,255.8095027,233.6738837,578.4560817,834.8755166,534.539177,-8.314388246,230.3799616
2.02,-3.553979153,862.5862367,258.2679988,234.835993,578.1208766,838.988218,538.5626145,-5.922725648,232.4363581
2.022,-4.112572903,857.0653626,260.4808894,234.9478094,579.484402,838.9435403,537.8467942,-6.213314027,232.1458308
2.024,-4.559838528,856.3278138,260.4135066,234.5230047,580.5349391,837.5130288,536.4385911,-6.101558656,231.2293269
2.026,-6.191186184,857.1547181,258.5809871,233.8970282,577.5395778,835.0319803,534.2042161,-6.235652895,228.5917536
2.028,-5.945580715,858.965265,258.2455379,234.6348212,576.4221461,835.5684182,534.226677,-4.961605043,228.7929255
2.03,-4.469994778,861.0440003,258.9608699,235.6856024,576.9585231,839.0776346,537.6456223,-1.854732484,232.3246638
2.032,-2.548119778,864.1508119,259.9218074,236.0430243,577.6513942,839.9046609,540.0157395,-0.625362367,236.0574519
2.034,0.558813816,870.5211732,262.2465144,237.8311102,580.6018336,841.5363443,542.898552,0.96161273,238.9854304
2.036,2.905981785,873.1586244,265.3983699,239.6416571,585.9216578,846.1184366,545.7374192,3.554386168,242.2041804
2.038,3.487036472,870.2528626,264.7274715,239.1499579,587.9780543,848.9794595,546.3633957,5.074344664,244.1487605
2.04,3.10715366,866.3637025,263.4535457,237.3169501,586.6592067,848.7559488,546.0499192,3.979068785,242.628863
2.042,1.676489597,865.4025208,264.5712215,237.0713446,587.4414332,847.4148233,544.0831223,2.816776305,242.8970515
2.044,-0.089135403,864.486139,265.4203425,239.105036,589.4756129,846.4537027,542.2061692,2.190982848,241.6676814
2.046,-1.855248684,865.0449769,265.7557918,240.558161,589.3860133,843.905607,540.7305832,0.738101988,238.3595759
2.048,-4.581811184,862.2509095,263.4984675,239.2842352,586.2121852,841.5586831,539.6573411,-0.088924379,236.392657
2.05,-8.15847134,857.0653626,259.809991,238.054743,581.7864039,840.7093179,540.7081223,0.80511859,236.7950007
2.052,-9.990990872,857.4006898,259.9891902,239.9771063,581.8535426,842.7209756,545.2012864,3.82263568,241.6006648
2.054,-11.95778775,856.104181,259.3407527,240.5806219,583.8205836,844.2185342,548.1739426,6.884830504,246.9427058
2.056,-12.67311978,853.6008851,260.1679011,239.3735907,583.6416285,844.7773416,549.3809739,7.264774352,248.3732478
2.058,-11.75710415,852.5280091,259.0277644,239.6191962,582.8147242,846.7889993,552.5772629,7.55536273,247.5015437
2.06,-11.22048306,852.4832093,256.7704402,241.1841376,584.3794215,849.8511636,555.8184739,11.44458392,252.9329402
2.062,-12.44997525,847.4764954,256.9047175,241.1841376,586.1450465,850.5664346,553.2921067,20.63116839,257.8056208
2.064,-14.70729947,845.3530824,257.5082332,242.2793524,587.4192164,847.7501199,554.476677,16.45135882,261.3819148
2.066,-17.70241665,842.3579652,256.1220027,242.9722235,585.6086695,843.4138772,554.7901536,9.209415465,255.3916804
2.068,-18.2610104,828.7233216,259.47503,243.1284735,581.3393824,840.8210733,556.3321457,9.343509703,250.4966609
2.07,-17.97048306,818.9779603,261.3749324,243.2402899,579.6631129,838.0270974,559.4161301,6.549564391,247.5238825
2.072,-17.34499478,832.5454652,258.1337215,243.7319891,580.6689723,840.1505105,555.2364426,8.807071715,249.2002741
2.074,-16.87526822,852.3938538,256.0326472,243.5532782,581.4958766,842.9668557,550.2969895,10.55047992,250.9213435
2.076,-15.91433072,852.9973695,254.4457332,242.6143133,581.0488551,844.9338052,546.117302,10.39404681,248.4626033
2.078,-16.31667447,848.4598939,254.2001277,240.5806219,580.0207789,845.8502176,544.0167161,9.656436949,242.1370417
2.08,-20.00466275,844.526056,251.3387996,238.9263251,577.7185328,843.10095,544.7764817,5.923709898,236.3256404
2.082,-20.71999478,844.5483949,250.9364558,239.3735907,579.3279078,840.8657815,551.101677,3.062686949,234.8727595
2.084,-20.09401822,845.2859437,253.059991,238.9932196,582.859402,839.3011453,553.4044114,2.682682066,240.3712947
2.086,-20.74245572,846.3588197,253.8197566,239.5967352,583.0158961,837.6247842,550.4092942,3.353275328,245.1321589
2.088,-21.56911587,845.7106263,253.954034,240.2227118,581.7195094,836.6189554,549.9844895,4.336734801,247.3673884
2.09,-22.0163815,846.4929749,253.5741511,239.7534735,580.7583278,835.8813455,550.0069504,3.621463805,246.540362
